timestamps,words,terms,TP9,AF7,AF8,TP10,Right AUX,Marker
1713993500.7509303,1,HELLO,410.15625,139.6484375,-455.56640625,541.50390625,0.0,0
1713993500.7547865,1,HELLO,999.51171875,999.51171875,-234.375,896.484375,0.0,0
1713993500.7586427,1,HELLO,-430.6640625,-274.4140625,-505.859375,999.51171875,0.0,0
1713993500.7624986,1,HELLO,-1000.0,-1000.0,-754.39453125,794.43359375,0.0,0
1713993500.7663548,1,HELLO,-178.7109375,-216.796875,-621.09375,320.80078125,0.0,0
1713993500.770211,1,HELLO,999.51171875,999.51171875,-77.63671875,809.08203125,0.0,0
1713993500.7740672,1,HELLO,128.90625,218.26171875,-294.921875,999.51171875,0.0,0
1713993500.777923,1,HELLO,-1000.0,-1000.0,-689.453125,999.51171875,0.0,0
1713993500.7817793,1,HELLO,-246.09375,-391.11328125,-602.05078125,122.55859375,0.0,0
1713993500.7856355,1,HELLO,999.51171875,999.51171875,-266.11328125,61.03515625,0.0,0
1713993500.7894917,1,HELLO,242.1875,294.43359375,-291.50390625,999.51171875,0.0,0
1713993500.7933476,1,HELLO,-1000.0,-1000.0,-660.15625,999.51171875,0.0,0
1713993500.797788,1,HELLO,-648.92578125,-874.51171875,-740.72265625,28.80859375,0.0,0
1713993500.8016443,1,HELLO,999.51171875,706.54296875,-371.09375,-289.55078125,0.0,0
1713993500.8055007,1,HELLO,631.8359375,776.85546875,-219.23828125,989.2578125,0.0,0
1713993500.8093574,1,HELLO,-945.80078125,-811.5234375,-603.515625,999.51171875,0.0,0
1713993500.8132138,1,HELLO,-1000.0,-1000.0,-756.8359375,79.58984375,0.0,0
1713993500.8170705,1,HELLO,274.90234375,101.07421875,-432.6171875,-449.70703125,0.0,0
1713993500.820927,1,HELLO,999.51171875,999.51171875,-12.6953125,854.98046875,0.0,0
1713993500.8247836,1,HELLO,-216.30859375,-92.28515625,-311.03515625,999.51171875,0.0,0
1713993500.82864,1,HELLO,-1000.0,-1000.0,-726.07421875,381.34765625,0.0,0
1713993500.8324964,1,HELLO,-219.7265625,-227.05078125,-672.8515625,-1000.0,0.0,0
1713993500.836353,1,HELLO,999.51171875,999.51171875,-162.109375,3.90625,0.0,0
1713993500.8402095,1,HELLO,240.72265625,244.62890625,-277.83203125,999.51171875,0.0,0
1713993500.8445723,1,HELLO,-1000.0,-1000.0,-747.0703125,695.80078125,0.0,0
1713993500.8484292,1,HELLO,-363.76953125,-518.06640625,-753.90625,-875.48828125,0.0,0
1713993500.852286,1,HELLO,999.51171875,999.51171875,-211.9140625,-324.70703125,0.0,0
1713993500.856143,1,HELLO,311.03515625,405.76171875,-189.94140625,999.51171875,0.0,0
1713993500.86,1,HELLO,-1000.0,-1000.0,-696.77734375,999.51171875,0.0,0
1713993500.8638566,1,HELLO,-832.51953125,-1000.0,-760.25390625,-339.84375,0.0,0
1713993500.8677135,1,HELLO,766.11328125,456.54296875,-259.765625,-614.74609375,0.0,0
1713993500.8715703,1,HELLO,799.8046875,926.7578125,46.875,918.9453125,0.0,0
1713993500.8754272,1,HELLO,-756.8359375,-604.00390625,-512.20703125,999.51171875,0.0,0
1713993500.8792841,1,HELLO,-1000.0,-1000.0,-751.953125,144.04296875,0.0,0
1713993500.883141,1,HELLO,17.08984375,-123.046875,-509.765625,-1000.0,0.0,0
1713993500.886998,1,HELLO,999.51171875,999.51171875,-147.4609375,36.62109375,0.0,0
1713993500.8913236,1,HELLO,-99.12109375,39.0625,-426.7578125,999.51171875,0.0,0
1713993500.8951807,1,HELLO,-1000.0,-1000.0,-757.8125,193.84765625,0.0,0
1713993500.899038,1,HELLO,-226.5625,-252.44140625,-646.97265625,-1000.0,0.0,0
1713993500.9028952,1,HELLO,999.51171875,999.51171875,-234.375,-258.7890625,0.0,0
1713993500.9067523,1,HELLO,244.62890625,244.140625,-339.35546875,999.51171875,0.0,0
1713993500.9106095,1,HELLO,-1000.0,-1000.0,-688.4765625,502.9296875,0.0,0
1713993500.9144666,1,HELLO,-503.90625,-665.0390625,-653.3203125,-1000.0,0.0,0
1713993500.918324,1,HELLO,999.51171875,981.93359375,-234.375,-563.96484375,0.0,0
1713993500.9221811,1,HELLO,419.921875,524.90234375,-276.85546875,990.72265625,0.0,0
1713993500.9260383,1,HELLO,-1000.0,-989.74609375,-671.875,988.28125,0.0,0
1713993500.9298954,1,HELLO,-1000.0,-1000.0,-743.65234375,-427.24609375,0.0,0
1713993500.9337525,1,HELLO,463.37890625,239.74609375,-462.890625,-1000.0,0.0,0
1713993500.938353,1,HELLO,950.1953125,999.51171875,-184.08203125,231.4453125,0.0,0
1713993500.9422107,1,HELLO,-586.42578125,-417.48046875,-483.88671875,999.51171875,0.0,0
1713993500.9460683,1,HELLO,-1000.0,-1000.0,-728.02734375,42.96875,0.0,0
1713993500.949926,1,HELLO,-95.21484375,-201.171875,-619.62890625,-1000.0,0.0,0
1713993500.9537838,1,HELLO,999.51171875,999.51171875,-251.953125,-246.09375,0.0,0
1713993500.9576414,1,HELLO,16.11328125,154.78515625,-352.05078125,999.51171875,0.0,0
1713993500.961499,1,HELLO,-1000.0,-1000.0,-653.80859375,238.76953125,0.0,0
1713993500.9653566,1,HELLO,-234.86328125,-356.93359375,-713.8671875,-1000.0,0.0,0
1713993500.9692144,1,HELLO,999.51171875,999.51171875,-318.359375,-399.4140625,0.0,0
1713993500.973072,1,HELLO,244.140625,246.58203125,-316.89453125,999.51171875,0.0,0
1713993500.9769297,1,HELLO,-1000.0,-1000.0,-671.38671875,518.06640625,0.0,0
1713993500.9807873,1,HELLO,-648.92578125,-828.125,-779.78515625,-1000.0,0.0,0
1713993500.9853473,1,HELLO,999.51171875,787.59765625,-379.8828125,-870.60546875,0.0,0
1713993500.9892054,1,HELLO,521.97265625,645.99609375,-201.171875,669.921875,0.0,0
1713993500.9930634,1,HELLO,-993.65234375,-911.1328125,-568.84765625,999.51171875,0.0,0
1713993500.9969218,1,HELLO,-1000.0,-1000.0,-756.34765625,-411.62109375,0.0,0
1713993501.0007799,1,HELLO,253.90625,62.01171875,-533.203125,-1000.0,0.0,0
1713993501.004638,1,HELLO,999.51171875,999.51171875,-109.375,45.41015625,0.0,0
1713993501.008496,1,HELLO,-401.85546875,-227.05078125,-379.39453125,999.51171875,0.0,0
1713993501.0123541,1,HELLO,-1000.0,-1000.0,-740.234375,144.53125,0.0,0
1713993501.0162125,1,HELLO,-207.03125,-217.7734375,-627.44140625,-1000.0,0.0,0
1713993501.0200706,1,HELLO,999.51171875,999.51171875,-56.640625,-256.34765625,0.0,0
1713993501.0239286,1,HELLO,138.18359375,227.5390625,-290.52734375,999.51171875,0.0,0
1713993501.0277867,1,HELLO,-1000.0,-1000.0,-788.57421875,240.234375,0.0,0
1713993501.0322983,1,HELLO,-327.63671875,-473.6328125,-669.43359375,-1000.0,0.0,0
1713993501.036157,1,HELLO,999.51171875,999.51171875,-253.90625,-499.0234375,0.0,0
1713993501.0400155,1,HELLO,253.90625,331.54296875,-334.47265625,999.51171875,0.0,0
1713993501.043874,1,HELLO,-1000.0,-1000.0,-710.9375,588.37890625,0.0,0
1713993501.0477326,1,HELLO,-729.4921875,-867.67578125,-723.14453125,-965.8203125,0.0,0
1713993501.0515912,1,HELLO,938.4765625,740.72265625,-318.359375,-1000.0,0.0,0
1713993501.0554497,1,HELLO,645.99609375,786.1328125,-169.43359375,417.48046875,0.0,0
1713993501.0593083,1,HELLO,-918.45703125,-759.765625,-575.1953125,999.51171875,0.0,0
1713993501.0631669,1,HELLO,-1000.0,-1000.0,-703.61328125,-342.28515625,0.0,0
1713993501.0670254,1,HELLO,119.140625,-75.1953125,-478.515625,-1000.0,0.0,0
1713993501.070884,1,HELLO,999.51171875,999.51171875,-290.52734375,-142.578125,0.0,0
1713993501.0747426,1,HELLO,-210.44921875,-71.2890625,-480.95703125,999.51171875,0.0,0
1713993501.0792933,1,HELLO,-1000.0,-1000.0,-725.09765625,198.73046875,0.0,0
1713993501.0831523,1,HELLO,-220.703125,-228.02734375,-677.24609375,-1000.0,0.0,0
1713993501.0870113,1,HELLO,999.51171875,999.51171875,-279.296875,-293.45703125,0.0,0
1713993501.0908701,1,HELLO,226.07421875,228.02734375,-381.8359375,999.51171875,0.0,0
1713993501.0947292,1,HELLO,-1000.0,-1000.0,-680.17578125,261.71875,0.0,0
1713993501.0985882,1,HELLO,-373.046875,-522.4609375,-687.5,-1000.0,0.0,0
1713993501.1024473,1,HELLO,999.51171875,999.51171875,-274.90234375,-604.00390625,0.0,0
1713993501.1063063,1,HELLO,333.49609375,432.12890625,-219.23828125,998.046875,0.0,0
1713993501.1101654,1,HELLO,-1000.0,-1000.0,-608.3984375,718.26171875,0.0,0
1713993501.1140244,1,HELLO,-912.109375,-1000.0,-753.41796875,-825.1953125,0.0,0
1713993501.1178834,1,HELLO,663.0859375,334.47265625,-505.37109375,-1000.0,0.0,0
1713993501.1217425,1,HELLO,810.546875,949.70703125,-255.859375,213.8671875,0.0,0
1713993501.1261551,1,HELLO,-751.46484375,-570.3125,-509.27734375,999.51171875,0.0,0
1713993501.1300147,1,HELLO,-1000.0,-1000.0,-764.16015625,-178.7109375,0.0,0
1713993501.133874,1,HELLO,-53.22265625,-174.8046875,-657.71484375,-1000.0,0.0,0
1713993501.1377335,1,HELLO,999.51171875,999.51171875,-187.01171875,-149.4140625,0.0,0
1713993501.1415927,1,HELLO,-90.8203125,62.01171875,-327.1484375,993.1640625,0.0,0
1713993501.145452,1,HELLO,-1000.0,-1000.0,-725.09765625,-147.4609375,0.0,0
1713993501.1493115,1,HELLO,-225.09765625,-296.875,-694.3359375,-1000.0,0.0,0
1713993501.1531708,1,HELLO,999.51171875,999.51171875,-152.34375,-364.74609375,0.0,0
1713993501.1570303,1,HELLO,245.60546875,245.1171875,-118.1640625,999.51171875,0.0,0
1713993501.1608896,1,HELLO,-1000.0,-1000.0,-699.70703125,247.0703125,0.0,0
1713993501.164749,1,HELLO,-558.59375,-761.71875,-744.62890625,-1000.0,0.0,0
1713993501.1686084,1,HELLO,999.51171875,878.90625,-300.78125,-1000.0,0.0,0
1713993501.1729856,1,HELLO,431.15234375,555.6640625,-295.8984375,424.31640625,0.0,0
1713993501.1768453,1,HELLO,-1000.0,-969.23828125,-689.94140625,632.32421875,0.0,0
1713993501.180705,1,HELLO,-1000.0,-1000.0,-747.55859375,-911.62109375,0.0,0
1713993501.1845648,1,HELLO,331.0546875,131.34765625,-485.3515625,-1000.0,0.0,0
1713993501.1884243,1,HELLO,952.63671875,999.51171875,-292.48046875,-119.140625,0.0,0
1713993501.192284,1,HELLO,-574.70703125,-373.046875,-519.04296875,890.625,0.0,0
1713993501.1961439,1,HELLO,-1000.0,-1000.0,-710.9375,-531.73828125,0.0,0
1713993501.2000036,1,HELLO,-196.2890625,-208.984375,-539.0625,-1000.0,0.0,0
1713993501.2038634,1,HELLO,999.51171875,999.51171875,-222.65625,-955.56640625,0.0,0
1713993501.207723,1,HELLO,32.71484375,172.36328125,-489.74609375,313.96484375,0.0,0
1713993501.2115827,1,HELLO,-1000.0,-1000.0,-692.87109375,-20.5078125,0.0,0
1713993501.2154424,1,HELLO,-263.18359375,-446.77734375,-650.87890625,-1000.0,0.0,0
1713993501.2197745,1,HELLO,999.51171875,999.51171875,-372.55859375,-1000.0,0.0,0
1713993501.2236345,1,HELLO,240.234375,253.90625,-410.15625,-77.1484375,0.0,0
1713993501.2274945,1,HELLO,-1000.0,-1000.0,-582.51953125,224.12109375,0.0,0
1713993501.2313545,1,HELLO,-787.109375,-948.2421875,-644.04296875,-1000.0,0.0,0
1713993501.2352145,1,HELLO,862.79296875,617.67578125,-447.75390625,-1000.0,0.0,0
1713993501.2390745,1,HELLO,543.45703125,669.921875,-328.125,-317.3828125,0.0,0
1713993501.2429347,1,HELLO,-985.3515625,-893.5546875,-530.76171875,168.45703125,0.0,0
1713993501.2467947,1,HELLO,-1000.0,-1000.0,-633.7890625,-974.12109375,0.0,0
1713993501.2506547,1,HELLO,152.83203125,-43.9453125,-613.28125,-1000.0,0.0,0
1713993501.2545147,1,HELLO,999.51171875,999.51171875,-381.34765625,-854.4921875,0.0,0
1713993501.2583747,1,HELLO,-393.06640625,-218.26171875,-505.37109375,-37.59765625,0.0,0
1713993501.2622347,1,HELLO,-1000.0,-1000.0,-712.40234375,-680.6640625,0.0,0
1713993501.266562,1,HELLO,-206.54296875,-215.8203125,-692.3828125,-1000.0,0.0,0
1713993501.2704222,1,HELLO,999.51171875,999.51171875,-375.0,-1000.0,0.0,0
1713993501.2742825,1,HELLO,143.06640625,226.07421875,-447.265625,-16.11328125,0.0,0
1713993501.278143,1,HELLO,-1000.0,-1000.0,-674.31640625,56.15234375,0.0,0
1713993501.2820032,1,HELLO,-438.4765625,-578.61328125,-703.61328125,-1000.0,0.0,0
1713993501.2858634,1,HELLO,999.51171875,999.51171875,-321.77734375,-1000.0,0.0,0
1713993501.2897236,1,HELLO,254.8828125,325.68359375,-200.68359375,57.6171875,0.0,0
1713993501.293584,1,HELLO,-1000.0,-1000.0,-543.9453125,285.15625,0.0,0
1713993501.2974443,1,HELLO,-908.203125,-1000.0,-756.8359375,-1000.0,0.0,0
1713993501.3013046,1,HELLO,687.98828125,384.27734375,-452.1484375,-1000.0,0.0,0
1713993501.305165,1,HELLO,678.22265625,833.0078125,-290.0390625,-73.2421875,0.0,0
1713993501.3090253,1,HELLO,-908.203125,-727.05078125,-600.5859375,707.03125,0.0,0
1713993501.3132796,1,HELLO,-1000.0,-1000.0,-746.09375,-750.0,0.0,0
1713993501.31714,1,HELLO,25.390625,-147.4609375,-571.77734375,-1000.0,0.0,0
1713993501.3210006,1,HELLO,999.51171875,999.51171875,-237.79296875,-245.1171875,0.0,0
1713993501.3248613,1,HELLO,-200.68359375,-42.96875,-464.84375,999.51171875,0.0,0
1713993501.3287218,1,HELLO,-1000.0,-1000.0,-723.6328125,18.5546875,0.0,0
1713993501.3325822,1,HELLO,-217.7734375,-262.6953125,-583.49609375,-1000.0,0.0,0
1713993501.336443,1,HELLO,999.51171875,999.51171875,-149.90234375,-508.30078125,0.0,0
1713993501.3403034,1,HELLO,246.09375,246.58203125,-351.5625,999.51171875,0.0,0
1713993501.344164,1,HELLO,-1000.0,-1000.0,-666.50390625,261.23046875,0.0,0
1713993501.3480246,1,HELLO,-552.734375,-699.21875,-678.7109375,-1000.0,0.0,0
1713993501.351885,1,HELLO,999.51171875,951.66015625,-393.5546875,-1000.0,0.0,0
1713993501.3557456,1,HELLO,356.93359375,468.26171875,-386.23046875,512.20703125,0.0,0
1713993501.3602757,1,HELLO,-1000.0,-1000.0,-623.53515625,647.4609375,0.0,0
1713993501.3641367,1,HELLO,-1000.0,-1000.0,-698.2421875,-932.6171875,0.0,0
1713993501.367998,1,HELLO,491.69921875,215.33203125,-536.1328125,-1000.0,0.0,0
1713993501.3718588,1,HELLO,826.171875,976.07421875,-354.98046875,20.5078125,0.0,0
1713993501.3757198,1,HELLO,-747.55859375,-520.99609375,-541.50390625,999.51171875,0.0,0
1713993501.3795807,1,HELLO,-1000.0,-1000.0,-669.921875,-205.56640625,0.0,0
1713993501.3834417,1,HELLO,-107.421875,-198.73046875,-581.0546875,-1000.0,0.0,0
1713993501.3873026,1,HELLO,999.51171875,999.51171875,-232.421875,-225.09765625,0.0,0
1713993501.3911636,1,HELLO,-34.66796875,100.5859375,-382.32421875,999.51171875,0.0,0
1713993501.3950245,1,HELLO,-1000.0,-1000.0,-617.1875,238.28125,0.0,0
1713993501.3988855,1,HELLO,-229.00390625,-352.5390625,-631.34765625,-1000.0,0.0,0
1713993501.4027464,1,HELLO,999.51171875,999.51171875,-349.609375,-341.796875,0.0,0
1713993501.4074593,1,HELLO,244.62890625,247.55859375,-351.07421875,999.51171875,0.0,0
1713993501.4113207,1,HELLO,-1000.0,-1000.0,-613.28125,500.0,0.0,0
1713993501.415182,1,HELLO,-647.4609375,-835.9375,-741.69921875,-1000.0,0.0,0
1713993501.4190438,1,HELLO,999.51171875,786.1328125,-431.640625,-793.45703125,0.0,0
1713993501.4229052,1,HELLO,458.984375,600.09765625,-324.70703125,774.90234375,0.0,0
1713993501.4267666,1,HELLO,-1000.0,-947.75390625,-577.1484375,999.51171875,0.0,0
1713993501.430628,1,HELLO,-1000.0,-1000.0,-704.1015625,-451.66015625,0.0,0
1713993501.4344897,1,HELLO,265.13671875,66.40625,-595.21484375,-1000.0,0.0,0
1713993501.4383512,1,HELLO,999.51171875,999.51171875,-165.0390625,84.9609375,0.0,0
1713993501.4422126,1,HELLO,-481.4453125,-290.0390625,-326.66015625,999.51171875,0.0,0
1713993501.4460742,1,HELLO,-1000.0,-1000.0,-749.0234375,144.53125,0.0,0
1713993501.4499357,1,HELLO,-207.03125,-214.35546875,-653.80859375,-1000.0,0.0,0
1713993501.4543755,1,HELLO,999.51171875,999.51171875,-192.3828125,-257.32421875,0.0,0
1713993501.4582374,1,HELLO,138.671875,216.30859375,-335.9375,999.51171875,0.0,0
1713993501.4620993,1,HELLO,-1000.0,-1000.0,-711.9140625,239.2578125,0.0,0
1713993501.4659612,1,HELLO,-333.984375,-476.5625,-703.61328125,-1000.0,0.0,0
1713993501.469823,1,HELLO,999.51171875,999.51171875,-284.1796875,-467.7734375,0.0,0
1713993501.4736848,1,HELLO,247.55859375,291.9921875,-275.390625,999.51171875,0.0,0
1713993501.4775467,1,HELLO,-1000.0,-1000.0,-613.76953125,579.58984375,0.0,0
1713993501.4814086,1,HELLO,-785.64453125,-972.16796875,-718.75,-971.6796875,0.0,0
1713993501.4852703,1,HELLO,855.95703125,566.40625,-286.62109375,-1000.0,0.0,0
1713993501.4891322,1,HELLO,613.28125,761.23046875,-174.31640625,445.3125,0.0,0
1713993501.492994,1,HELLO,-945.3125,-806.640625,-642.08984375,999.51171875,0.0,0
1713993501.496856,1,HELLO,-1000.0,-1000.0,-702.63671875,-349.609375,0.0,0
1713993501.5012646,1,HELLO,119.62890625,-74.21875,-545.41015625,-1000.0,0.0,0
1713993501.5051267,1,HELLO,999.51171875,999.51171875,-344.7265625,-130.859375,0.0,0
1713993501.5089889,1,HELLO,-250.9765625,-116.2109375,-499.51171875,999.51171875,0.0,0
1713993501.5128512,1,HELLO,-1000.0,-1000.0,-682.6171875,197.265625,0.0,0
1713993501.5167134,1,HELLO,-218.26171875,-222.65625,-634.765625,-1000.0,0.0,0
1713993501.5205755,1,HELLO,999.51171875,999.51171875,-243.65234375,-276.3671875,0.0,0
1713993501.5244377,1,HELLO,244.62890625,244.62890625,-361.328125,999.51171875,0.0,0
1713993501.5282998,1,HELLO,-1000.0,-1000.0,-616.2109375,268.06640625,0.0,0
1713993501.532162,1,HELLO,-456.0546875,-619.62890625,-608.88671875,-1000.0,0.0,0
1713993501.5360243,1,HELLO,999.51171875,999.51171875,-411.62109375,-645.5078125,0.0,0
1713993501.5398865,1,HELLO,251.46484375,387.6953125,-387.20703125,967.7734375,0.0,0
1713993501.5437486,1,HELLO,-1000.0,-1000.0,-616.69921875,711.9140625,0.0,0
1713993501.548089,1,HELLO,-915.52734375,-1000.0,-736.328125,-855.46875,0.0,0
1713993501.5519514,1,HELLO,646.97265625,319.3359375,-522.4609375,-1000.0,0.0,0
1713993501.5558138,1,HELLO,768.5546875,911.1328125,-340.33203125,253.90625,0.0,0
1713993501.5596764,1,HELLO,-827.1484375,-650.390625,-570.80078125,999.51171875,0.0,0
1713993501.5635388,1,HELLO,-1000.0,-1000.0,-716.796875,-125.48828125,0.0,0
1713993501.5674012,1,HELLO,27.83203125,-86.42578125,-579.1015625,-1000.0,0.0,0
1713993501.5712638,1,HELLO,999.51171875,999.51171875,-216.30859375,-174.8046875,0.0,0
1713993501.5751262,1,HELLO,-89.84375,29.78515625,-349.12109375,999.51171875,0.0,0
1713993501.5789888,1,HELLO,-1000.0,-1000.0,-676.26953125,228.02734375,0.0,0
1713993501.5828512,1,HELLO,-225.09765625,-296.38671875,-698.2421875,-1000.0,0.0,0
1713993501.5867136,1,HELLO,999.51171875,999.51171875,-266.6015625,-299.8046875,0.0,0
1713993501.5905762,1,HELLO,245.60546875,246.09375,-307.6171875,999.51171875,0.0,0
1713993501.594877,1,HELLO,-1000.0,-1000.0,-682.12890625,429.6875,0.0,0
1713993501.5987396,1,HELLO,-557.12890625,-766.11328125,-755.859375,-1000.0,0.0,0
1713993501.6026025,1,HELLO,999.51171875,875.9765625,-359.86328125,-707.51953125,0.0,0
1713993501.606465,1,HELLO,390.625,526.85546875,-287.109375,908.69140625,0.0,0
1713993501.610328,1,HELLO,-1000.0,-985.83984375,-625.0,868.65234375,0.0,0
1713993501.6141906,1,HELLO,-1000.0,-1000.0,-733.88671875,-663.57421875,0.0,0
1713993501.6180534,1,HELLO,354.4921875,141.6015625,-400.390625,-1000.0,0.0,0
1713993501.621916,1,HELLO,935.546875,999.51171875,-33.203125,157.71484375,0.0,0
1713993501.625779,1,HELLO,-597.16796875,-417.48046875,-492.1875,999.51171875,0.0,0
1713993501.6296415,1,HELLO,-1000.0,-1000.0,-726.5625,44.921875,0.0,0
1713993501.6335044,1,HELLO,-196.77734375,-208.49609375,-593.26171875,-1000.0,0.0,0
1713993501.637367,1,HELLO,999.51171875,999.51171875,-294.43359375,-245.60546875,0.0,0
1713993501.641932,1,HELLO,30.76171875,164.55078125,-449.70703125,999.51171875,0.0,0
1713993501.6457953,1,HELLO,-1000.0,-1000.0,-679.6875,239.2578125,0.0,0
1713993501.6496584,1,HELLO,-232.421875,-411.1328125,-651.3671875,-1000.0,0.0,0
1713993501.6535215,1,HELLO,999.51171875,999.51171875,-364.74609375,-404.78515625,0.0,0
1713993501.6573846,1,HELLO,242.1875,252.9296875,-391.11328125,999.51171875,0.0,0
1713993501.661248,1,HELLO,-1000.0,-1000.0,-613.76953125,560.546875,0.0,0
1713993501.665111,1,HELLO,-680.17578125,-906.73828125,-636.23046875,-1000.0,0.0,0
1713993501.6689742,1,HELLO,979.00390625,678.7109375,-354.98046875,-944.3359375,0.0,0
1713993501.6728373,1,HELLO,535.64453125,675.29296875,-353.515625,585.44921875,0.0,0
1713993501.6767004,1,HELLO,-976.07421875,-891.11328125,-607.91015625,999.51171875,0.0,0
1713993501.6805637,1,HELLO,-1000.0,-1000.0,-706.0546875,-395.5078125,0.0,0
1713993501.6844268,1,HELLO,171.875,6.34765625,-568.84765625,-1000.0,0.0,0
1713993501.688676,1,HELLO,999.51171875,999.51171875,-279.78515625,-56.640625,0.0,0
1713993501.6925395,1,HELLO,-395.01953125,-209.9609375,-448.2421875,999.51171875,0.0,0
1713993501.6964028,1,HELLO,-1000.0,-1000.0,-667.48046875,74.21875,0.0,0
1713993501.7002664,1,HELLO,-206.54296875,-217.28515625,-657.71484375,-1000.0,0.0,0
1713993501.7041297,1,HELLO,999.51171875,999.51171875,-302.24609375,-282.71484375,0.0,0
1713993501.707993,1,HELLO,140.13671875,229.00390625,-347.16796875,999.51171875,0.0,0
1713993501.7118564,1,HELLO,-1000.0,-1000.0,-605.46875,240.234375,0.0,0
1713993501.7157197,1,HELLO,-365.72265625,-547.8515625,-697.75390625,-1000.0,0.0,0
1713993501.719583,1,HELLO,999.51171875,999.51171875,-386.23046875,-766.11328125,0.0,0
1713993501.7234466,1,HELLO,243.1640625,319.82421875,-281.73828125,869.62890625,0.0,0
1713993501.72731,1,HELLO,-1000.0,-1000.0,-538.57421875,523.4375,0.0,0
1713993501.7311733,1,HELLO,-894.53125,-1000.0,-752.44140625,-991.2109375,0.0,0
1713993501.7356734,1,HELLO,708.49609375,434.5703125,-488.28125,-1000.0,0.0,0
1713993501.7395372,1,HELLO,671.38671875,814.453125,-271.97265625,134.27734375,0.0,0
1713993501.7434008,1,HELLO,-910.15625,-749.0234375,-533.69140625,999.51171875,0.0,0
1713993501.7472646,1,HELLO,-1000.0,-1000.0,-723.14453125,-322.75390625,0.0,0
1713993501.7511284,1,HELLO,24.90234375,-134.27734375,-610.3515625,-1000.0,0.0,0
1713993501.7549922,1,HELLO,999.51171875,999.51171875,-188.4765625,-166.015625,0.0,0
1713993501.7588558,1,HELLO,-200.68359375,-60.05859375,-353.515625,999.51171875,0.0,0
1713993501.7627196,1,HELLO,-1000.0,-1000.0,-693.359375,203.125,0.0,0
1713993501.7665834,1,HELLO,-217.7734375,-254.8828125,-664.0625,-1000.0,0.0,0
1713993501.7704473,1,HELLO,999.51171875,999.51171875,-162.109375,-291.015625,0.0,0
1713993501.7743108,1,HELLO,245.60546875,247.0703125,-303.7109375,999.51171875,0.0,0
1713993501.7781746,1,HELLO,-1000.0,-1000.0,-723.6328125,300.29296875,0.0,0
1713993501.7826118,1,HELLO,-524.90234375,-682.6171875,-688.96484375,-1000.0,0.0,0
1713993501.786476,1,HELLO,999.51171875,966.30859375,-357.421875,-684.5703125,0.0,0
1713993501.7903402,1,HELLO,343.26171875,456.0546875,-380.37109375,911.1328125,0.0,0
1713993501.7942042,1,HELLO,-1000.0,-1000.0,-650.390625,818.84765625,0.0,0
1713993501.7980683,1,HELLO,-966.796875,-1000.0,-699.70703125,-736.328125,0.0,0
1713993501.8019323,1,HELLO,578.61328125,330.078125,-436.03515625,-1000.0,0.0,0
1713993501.8057964,1,HELLO,816.89453125,952.63671875,-233.3984375,214.35546875,0.0,0
1713993501.8096604,1,HELLO,-748.046875,-542.96875,-536.62109375,999.51171875,0.0,0
1713993501.8135245,1,HELLO,-1000.0,-1000.0,-668.9453125,-14.16015625,0.0,0
1713993501.8173888,1,HELLO,-88.37890625,-193.359375,-516.6015625,-1000.0,0.0,0
1713993501.8212528,1,HELLO,999.51171875,999.51171875,-356.93359375,-222.65625,0.0,0
1713993501.8251169,1,HELLO,-63.96484375,83.0078125,-504.8828125,999.51171875,0.0,0
1713993501.829523,1,HELLO,-1000.0,-1000.0,-668.9453125,232.91015625,0.0,0
1713993501.8333874,1,HELLO,-228.515625,-345.703125,-672.8515625,-1000.0,0.0,0
1713993501.8372517,1,HELLO,999.51171875,999.51171875,-349.12109375,-317.3828125,0.0,0
1713993501.8411162,1,HELLO,227.05078125,245.1171875,-383.30078125,999.51171875,0.0,0
1713993501.8449805,1,HELLO,-1000.0,-1000.0,-616.69921875,515.625,0.0,0
1713993501.848845,1,HELLO,-557.12890625,-813.4765625,-687.5,-1000.0,0.0,0
1713993501.8527093,1,HELLO,999.51171875,796.38671875,-343.75,-744.140625,0.0,0
1713993501.8565738,1,HELLO,458.49609375,584.9609375,-234.375,827.63671875,0.0,0
1713993501.860438,1,HELLO,-1000.0,-955.078125,-540.0390625,999.51171875,0.0,0
1713993501.8643026,1,HELLO,-1000.0,-1000.0,-708.0078125,-410.15625,0.0,0
1713993501.868167,1,HELLO,280.2734375,74.70703125,-584.9609375,-1000.0,0.0,0
1713993501.8720315,1,HELLO,966.30859375,999.51171875,-286.62109375,81.0546875,0.0,0
1713993501.8766766,1,HELLO,-557.6171875,-326.66015625,-472.16796875,999.51171875,0.0,0
1713993501.8805413,1,HELLO,-1000.0,-1000.0,-725.5859375,145.5078125,0.0,0
1713993501.8844063,1,HELLO,-203.125,-211.42578125,-675.29296875,-1000.0,0.0,0
1713993501.888271,1,HELLO,999.51171875,999.51171875,-251.46484375,-257.8125,0.0,0
1713993501.8921359,1,HELLO,100.5859375,198.73046875,-342.7734375,999.51171875,0.0,0
1713993501.8960009,1,HELLO,-1000.0,-1000.0,-653.3203125,241.69921875,0.0,0
1713993501.8998656,1,HELLO,-328.125,-475.09765625,-706.54296875,-1000.0,0.0,0
1713993501.9037304,1,HELLO,999.51171875,999.51171875,-207.03125,-411.62109375,0.0,0
1713993501.9075954,1,HELLO,248.046875,280.2734375,-114.74609375,999.51171875,0.0,0
1713993501.9114602,1,HELLO,-1000.0,-1000.0,-649.90234375,589.84375,0.0,0
1713993501.915325,1,HELLO,-786.1328125,-977.5390625,-765.13671875,-976.5625,0.0,0
1713993501.91919,1,HELLO,860.83984375,564.94140625,-372.0703125,-970.703125,0.0,0
1713993501.9234986,1,HELLO,572.265625,727.5390625,-281.73828125,526.3671875,0.0,0
1713993501.9273636,1,HELLO,-970.21484375,-842.28515625,-646.97265625,999.51171875,0.0,0
1713993501.9312286,1,HELLO,-1000.0,-1000.0,-733.88671875,-281.25,0.0,0
1713993501.9350939,1,HELLO,130.37109375,-73.73046875,-562.01171875,-1000.0,0.0,0
1713993501.938959,1,HELLO,999.51171875,999.51171875,-293.45703125,-96.6796875,0.0,0
1713993501.9428241,1,HELLO,-318.84765625,-147.4609375,-457.51953125,999.51171875,0.0,0
1713993501.9466891,1,HELLO,-1000.0,-1000.0,-651.85546875,202.1484375,0.0,0
1713993501.9505544,1,HELLO,-215.33203125,-219.7265625,-619.62890625,-1000.0,0.0,0
1713993501.9544194,1,HELLO,999.51171875,999.51171875,-333.0078125,-275.390625,0.0,0
1713993501.9582844,1,HELLO,231.4453125,239.2578125,-450.68359375,999.51171875,0.0,0
1713993501.9621496,1,HELLO,-1000.0,-1000.0,-652.83203125,264.16015625,0.0,0
1713993501.9660146,1,HELLO,-454.1015625,-607.91015625,-622.55859375,-1000.0,0.0,0
1713993501.9702935,1,HELLO,999.51171875,999.51171875,-405.2734375,-665.52734375,0.0,0
1713993501.9741588,1,HELLO,252.44140625,367.1875,-415.0390625,947.265625,0.0,0
1713993501.9780242,1,HELLO,-1000.0,-1000.0,-583.49609375,721.6796875,0.0,0
1713993501.9818895,1,HELLO,-914.0625,-1000.0,-696.2890625,-845.21484375,0.0,0
1713993501.9857547,1,HELLO,678.7109375,332.03125,-507.32421875,-1000.0,0.0,0
1713993501.9896202,1,HELLO,677.734375,865.72265625,-319.3359375,218.75,0.0,0
1713993501.9934855,1,HELLO,-898.92578125,-683.59375,-494.62890625,999.51171875,0.0,0
1713993501.997351,1,HELLO,-1000.0,-1000.0,-634.27734375,-84.9609375,0.0,0
1713993502.0012162,1,HELLO,-57.12890625,-171.38671875,-637.20703125,-1000.0,0.0,0
1713993502.0050814,1,HELLO,999.51171875,999.51171875,-353.02734375,-205.078125,0.0,0
1713993502.008947,1,HELLO,-118.65234375,5.859375,-465.33203125,999.51171875,0.0,0
1713993502.0128121,1,HELLO,-1000.0,-1000.0,-687.5,231.4453125,0.0,0
1713993502.0170481,1,HELLO,-222.65625,-290.0390625,-698.2421875,-1000.0,0.0,0
1713993502.0209136,1,HELLO,999.51171875,999.51171875,-319.3359375,-296.875,0.0,0
1713993502.0247793,1,HELLO,246.09375,246.58203125,-354.98046875,999.51171875,0.0,0
1713993502.0286448,1,HELLO,-1000.0,-1000.0,-661.1328125,463.8671875,0.0,0
1713993502.0325103,1,HELLO,-555.6640625,-750.9765625,-714.35546875,-1000.0,0.0,0
1713993502.0363758,1,HELLO,999.51171875,893.5546875,-310.05859375,-654.78515625,0.0,0
1713993502.0402415,1,HELLO,364.2578125,508.30078125,-194.82421875,919.43359375,0.0,0
1713993502.044107,1,HELLO,-1000.0,-995.1171875,-556.640625,964.84375,0.0,0
1713993502.0479724,1,HELLO,-1000.0,-1000.0,-716.796875,-518.06640625,0.0,0
1713993502.0518382,1,HELLO,403.80859375,154.78515625,-497.55859375,-1000.0,0.0,0
1713993502.0557036,1,HELLO,911.62109375,999.51171875,-174.31640625,221.6796875,0.0,0
1713993502.0595691,1,HELLO,-628.41796875,-447.265625,-467.28515625,999.51171875,0.0,0
1713993502.0637846,1,HELLO,-1000.0,-1000.0,-755.859375,77.63671875,0.0,0
1713993502.0676503,1,HELLO,-187.98828125,-205.56640625,-594.7265625,-1000.0,0.0,0
1713993502.071516,1,HELLO,999.51171875,999.51171875,-245.60546875,-250.48828125,0.0,0
1713993502.0753818,1,HELLO,29.296875,139.6484375,-452.63671875,999.51171875,0.0,0
1713993502.0792475,1,HELLO,-1000.0,-1000.0,-710.9375,237.3046875,0.0,0
1713993502.0831132,1,HELLO,-232.91015625,-410.64453125,-592.28515625,-1000.0,0.0,0
1713993502.086979,1,HELLO,999.51171875,999.51171875,-156.25,-380.37109375,0.0,0
1713993502.0908446,1,HELLO,242.1875,250.0,-312.98828125,999.51171875,0.0,0
1713993502.0947104,1,HELLO,-1000.0,-1000.0,-632.32421875,557.12890625,0.0,0
1713993502.098576,1,HELLO,-680.17578125,-905.76171875,-696.77734375,-1000.0,0.0,0
1713993502.102442,1,HELLO,980.46875,684.5703125,-437.98828125,-854.00390625,0.0,0
1713993502.1063077,1,HELLO,502.9296875,645.5078125,-395.01953125,679.6875,0.0,0
1713993502.1110373,1,HELLO,-994.62890625,-916.50390625,-640.625,999.51171875,0.0,0
1713993502.1149035,1,HELLO,-1000.0,-1000.0,-699.70703125,-302.24609375,0.0,0
1713993502.1187696,1,HELLO,181.640625,13.18359375,-579.1015625,-1000.0,0.0,0
1713993502.1226358,1,HELLO,999.51171875,999.51171875,-366.69921875,71.2890625,0.0,0
1713993502.126502,1,HELLO,-409.1796875,-240.234375,-523.92578125,999.51171875,0.0,0
1713993502.1303682,1,HELLO,-1000.0,-1000.0,-680.17578125,9.27734375,0.0,0
1713993502.1342347,1,HELLO,-206.54296875,-215.8203125,-610.83984375,-1000.0,0.0,0
1713993502.1381009,1,HELLO,999.51171875,999.51171875,-237.79296875,-262.6953125,0.0,0
1713993502.141967,1,HELLO,139.6484375,223.6328125,-353.02734375,999.51171875,0.0,0
1713993502.1458333,1,HELLO,-1000.0,-1000.0,-627.9296875,263.18359375,0.0,0
1713993502.1496994,1,HELLO,-344.7265625,-530.2734375,-654.296875,-1000.0,0.0,0
1713993502.1535656,1,HELLO,999.51171875,999.51171875,-375.9765625,-520.99609375,0.0,0
1713993502.157988,1,HELLO,242.67578125,308.10546875,-349.609375,999.51171875,0.0,0
1713993502.1618545,1,HELLO,-1000.0,-1000.0,-585.44921875,593.26171875,0.0,0
1713993502.165721,1,HELLO,-858.88671875,-1000.0,-745.60546875,-950.1953125,0.0,0
1713993502.1695876,1,HELLO,758.7890625,462.40234375,-482.421875,-1000.0,0.0,0
1713993502.173454,1,HELLO,645.5078125,792.48046875,-310.05859375,334.47265625,0.0,0
1713993502.1773207,1,HELLO,-920.8984375,-773.92578125,-528.3203125,999.51171875,0.0,0
1713993502.1811872,1,HELLO,-1000.0,-1000.0,-704.58984375,-280.2734375,0.0,0
1713993502.1850536,1,HELLO,23.4375,-124.0234375,-627.9296875,-1000.0,0.0,0
1713993502.1889203,1,HELLO,999.51171875,999.51171875,-196.77734375,-178.7109375,0.0,0
1713993502.1927867,1,HELLO,-200.68359375,-69.3359375,-357.91015625,999.51171875,0.0,0
1713993502.1966534,1,HELLO,-1000.0,-1000.0,-701.171875,201.171875,0.0,0
1713993502.2005198,1,HELLO,-217.7734375,-250.0,-705.56640625,-1000.0,0.0,0
1713993502.204891,1,HELLO,999.51171875,999.51171875,-94.7265625,-303.7109375,0.0,0
1713993502.2087576,1,HELLO,245.60546875,246.09375,-89.84375,999.51171875,0.0,0
1713993502.2126245,1,HELLO,-1000.0,-1000.0,-689.453125,249.0234375,0.0,0
1713993502.2164912,1,HELLO,-520.99609375,-680.17578125,-722.65625,-1000.0,0.0,0
1713993502.2203581,1,HELLO,999.51171875,970.703125,-356.93359375,-836.42578125,0.0,0
1713993502.2242248,1,HELLO,292.96875,417.96875,-305.6640625,645.01953125,0.0,0
1713993502.2280917,1,HELLO,-1000.0,-1000.0,-575.1953125,534.1796875,0.0,0
1713993502.2319584,1,HELLO,-1000.0,-1000.0,-710.44921875,-859.375,0.0,0
1713993502.2358253,1,HELLO,490.72265625,241.2109375,-347.65625,-1000.0,0.0,0
1713993502.2396922,1,HELLO,812.01171875,929.6875,-171.875,17.578125,0.0,0
1713993502.243559,1,HELLO,-766.11328125,-588.37890625,-615.234375,999.51171875,0.0,0
1713993502.2474258,1,HELLO,-1000.0,-1000.0,-703.61328125,-202.63671875,0.0,0
1713993502.2517505,1,HELLO,-86.42578125,-192.3828125,-580.56640625,-1000.0,0.0,0
1713993502.2556176,1,HELLO,999.51171875,999.51171875,-337.40234375,-219.7265625,0.0,0
1713993502.2594845,1,HELLO,-86.42578125,53.22265625,-499.51171875,999.51171875,0.0,0
1713993502.2633517,1,HELLO,-1000.0,-1000.0,-664.55078125,242.1875,0.0,0
1713993502.2672186,1,HELLO,-224.12109375,-346.19140625,-631.34765625,-1000.0,0.0,0
1713993502.2710857,1,HELLO,999.51171875,999.51171875,-279.296875,-407.71484375,0.0,0
1713993502.274953,1,HELLO,245.60546875,249.51171875,-330.56640625,999.51171875,0.0,0
1713993502.2788198,1,HELLO,-1000.0,-1000.0,-571.2890625,465.8203125,0.0,0
1713993502.282687,1,HELLO,-642.08984375,-824.21875,-612.79296875,-1000.0,0.0,0
1713993502.2865539,1,HELLO,999.51171875,804.19921875,-469.23828125,-914.55078125,0.0,0
1713993502.290421,1,HELLO,441.89453125,561.5234375,-404.296875,634.27734375,0.0,0
1713993502.2942882,1,HELLO,-1000.0,-968.26171875,-605.46875,966.796875,0.0,0
1713993502.2986112,1,HELLO,-1000.0,-1000.0,-725.09765625,-556.15234375,0.0,0
1713993502.3024786,1,HELLO,282.2265625,83.984375,-573.2421875,-1000.0,0.0,0
1713993502.306346,1,HELLO,956.0546875,999.51171875,-325.68359375,45.8984375,0.0,0
1713993502.310213,1,HELLO,-573.73046875,-356.4453125,-510.25390625,999.51171875,0.0,0
1713993502.3140805,1,HELLO,-1000.0,-1000.0,-691.40625,111.81640625,0.0,0
1713993502.3179479,1,HELLO,-198.2421875,-209.47265625,-604.00390625,-1000.0,0.0,0
1713993502.321815,1,HELLO,999.51171875,999.51171875,-192.3828125,-251.953125,0.0,0
1713993502.3256824,1,HELLO,53.7109375,183.10546875,-272.4609375,999.51171875,0.0,0
1713993502.3295496,1,HELLO,-1000.0,-1000.0,-627.44140625,239.74609375,0.0,0
1713993502.333417,1,HELLO,-310.05859375,-466.30859375,-725.5859375,-1000.0,0.0,0
1713993502.3372843,1,HELLO,999.51171875,999.51171875,-326.171875,-449.70703125,0.0,0
1713993502.3411515,1,HELLO,247.0703125,270.5078125,-293.45703125,999.51171875,0.0,0
1713993502.3454118,1,HELLO,-1000.0,-1000.0,-639.16015625,592.28515625,0.0,0
1713993502.3492792,1,HELLO,-786.62109375,-967.7734375,-748.046875,-992.67578125,0.0,0
1713993502.3531468,1,HELLO,860.3515625,582.03125,-383.7890625,-945.80078125,0.0,0
1713993502.3570142,1,HELLO,573.2421875,712.40234375,-255.37109375,565.4296875,0.0,0
1713993502.3608818,1,HELLO,-970.21484375,-856.93359375,-593.75,999.51171875,0.0,0
1713993502.3647492,1,HELLO,-1000.0,-1000.0,-713.8671875,-312.01171875,0.0,0
1713993502.3686168,1,HELLO,150.87890625,-62.98828125,-473.14453125,-1000.0,0.0,0
1713993502.3724842,1,HELLO,999.51171875,999.51171875,-30.2734375,26.85546875,0.0,0
1713993502.3763518,1,HELLO,-372.0703125,-166.50390625,-418.45703125,999.51171875,0.0,0
1713993502.3802192,1,HELLO,-1000.0,-1000.0,-704.58984375,116.2109375,0.0,0
1713993502.3840868,1,HELLO,-213.37890625,-218.75,-614.74609375,-1000.0,0.0,0
1713993502.3879542,1,HELLO,999.51171875,999.51171875,-364.2578125,-270.5078125,0.0,0
1713993502.3921738,1,HELLO,221.19140625,238.76953125,-451.66015625,999.51171875,0.0,0
1713993502.3960414,1,HELLO,-1000.0,-1000.0,-669.921875,346.6796875,0.0,0
1713993502.399909,1,HELLO,-452.63671875,-583.49609375,-676.26953125,-1000.0,0.0,0
1713993502.403777,1,HELLO,999.51171875,999.51171875,-370.1171875,-545.8984375,0.0,0
1713993502.4076445,1,HELLO,253.41796875,364.2578125,-364.74609375,999.51171875,0.0,0
1713993502.4115121,1,HELLO,-1000.0,-1000.0,-608.3984375,737.79296875,0.0,0
1713993502.41538,1,HELLO,-908.203125,-1000.0,-638.18359375,-822.75390625,0.0,0
1713993502.4192476,1,HELLO,688.4765625,365.72265625,-430.17578125,-1000.0,0.0,0
1713993502.4231153,1,HELLO,676.26953125,863.28125,-362.79296875,306.640625,0.0,0
1713993502.4269829,1,HELLO,-906.73828125,-687.98828125,-570.80078125,999.51171875,0.0,0
1713993502.4308507,1,HELLO,-1000.0,-1000.0,-674.8046875,-75.68359375,0.0,0
1713993502.4347184,1,HELLO,-9.765625,-159.66796875,-618.1640625,-1000.0,0.0,0
1713993502.4389126,1,HELLO,999.51171875,999.51171875,-293.45703125,-192.3828125,0.0,0
1713993502.4427805,1,HELLO,-136.23046875,-6.34765625,-384.27734375,999.51171875,0.0,0
1713993502.4466484,1,HELLO,-1000.0,-1000.0,-650.87890625,232.421875,0.0,0
1713993502.4505162,1,HELLO,-222.65625,-276.3671875,-688.4765625,-1000.0,0.0,0
1713993502.454384,1,HELLO,999.51171875,999.51171875,-363.76953125,-352.05078125,0.0,0
1713993502.458252,1,HELLO,246.09375,245.60546875,-310.05859375,999.51171875,0.0,0
1713993502.4621198,1,HELLO,-1000.0,-1000.0,-556.640625,367.67578125,0.0,0
1713993502.4659877,1,HELLO,-555.17578125,-737.3046875,-720.703125,-1000.0,0.0,0
1713993502.4698555,1,HELLO,999.51171875,910.15625,-421.875,-810.546875,0.0,0
1713993502.4737234,1,HELLO,354.98046875,485.3515625,-305.17578125,787.109375,0.0,0
1713993502.4775913,1,HELLO,-1000.0,-1000.0,-537.59765625,840.33203125,0.0,0
1713993502.4814591,1,HELLO,-1000.0,-1000.0,-710.44921875,-705.56640625,0.0,0
1713993502.485875,1,HELLO,453.61328125,169.921875,-538.0859375,-1000.0,0.0,0
1713993502.489743,1,HELLO,835.44921875,982.421875,-286.1328125,71.2890625,0.0,0
1713993502.493611,1,HELLO,-727.05078125,-504.8828125,-520.5078125,999.51171875,0.0,0
1713993502.4974792,1,HELLO,-1000.0,-1000.0,-716.30859375,-44.921875,0.0,0
1713993502.5013475,1,HELLO,-178.7109375,-203.125,-627.9296875,-1000.0,0.0,0
1713993502.5052156,1,HELLO,999.51171875,999.51171875,-200.68359375,-233.3984375,0.0,0
1713993502.5090837,1,HELLO,-2.9296875,114.2578125,-319.3359375,999.51171875,0.0,0
1713993502.5129519,1,HELLO,-1000.0,-1000.0,-661.1328125,242.1875,0.0,0
1713993502.5168202,1,HELLO,-229.98046875,-399.4140625,-696.2890625,-1000.0,0.0,0
1713993502.5206883,1,HELLO,999.51171875,999.51171875,-186.5234375,-438.4765625,0.0,0
1713993502.5245564,1,HELLO,244.62890625,249.51171875,-252.9296875,999.51171875,0.0,0
1713993502.5284245,1,HELLO,-1000.0,-1000.0,-697.265625,536.62109375,0.0,0
1713993502.5328062,1,HELLO,-647.94921875,-896.97265625,-691.89453125,-1000.0,0.0,0
1713993502.5366747,1,HELLO,999.51171875,702.1484375,-378.41796875,-847.65625,0.0,0
1713993502.540543,1,HELLO,454.1015625,616.2109375,-357.91015625,689.453125,0.0,0
1713993502.5444114,1,HELLO,-1000.0,-940.4296875,-629.8828125,999.51171875,0.0,0
1713993502.54828,1,HELLO,-1000.0,-1000.0,-705.56640625,-361.328125,0.0,0
1713993502.5521483,1,HELLO,199.70703125,21.484375,-523.92578125,-1000.0,0.0,0
1713993502.5560167,1,HELLO,999.51171875,999.51171875,-211.42578125,51.26953125,0.0,0
1713993502.5598853,1,HELLO,-441.89453125,-263.671875,-447.75390625,999.51171875,0.0,0
1713993502.5637536,1,HELLO,-1000.0,-1000.0,-648.4375,171.38671875,0.0,0
1713993502.567622,1,HELLO,-207.03125,-214.84375,-541.50390625,-1000.0,0.0,0
1713993502.5714905,1,HELLO,999.51171875,999.51171875,-329.1015625,-263.18359375,0.0,0
1713993502.5753589,1,HELLO,139.6484375,220.703125,-420.8984375,999.51171875,0.0,0
1713993502.5797226,1,HELLO,-1000.0,-1000.0,-635.25390625,283.203125,0.0,0
1713993502.5835915,1,HELLO,-344.7265625,-517.08984375,-703.61328125,-1000.0,0.0,0
1713993502.58746,1,HELLO,999.51171875,999.51171875,-402.83203125,-453.61328125,0.0,0
1713993502.5913286,1,HELLO,245.60546875,299.8046875,-379.8828125,999.51171875,0.0,0
1713993502.5951974,1,HELLO,-1000.0,-1000.0,-603.515625,676.26953125,0.0,0
1713993502.599066,1,HELLO,-826.171875,-1000.0,-699.21875,-936.5234375,0.0,0
1713993502.6029348,1,HELLO,803.22265625,483.88671875,-405.76171875,-943.84765625,0.0,0
1713993502.6068034,1,HELLO,620.1171875,772.4609375,-237.3046875,551.7578125,0.0,0
1713993502.6106722,1,HELLO,-935.546875,-797.36328125,-504.8828125,999.51171875,0.0,0
1713993502.6145408,1,HELLO,-1000.0,-1000.0,-688.96484375,-125.0,0.0,0
1713993502.6184096,1,HELLO,40.52734375,-107.91015625,-631.34765625,-1000.0,0.0,0
1713993502.6222782,1,HELLO,999.51171875,999.51171875,-291.50390625,-30.76171875,0.0,0
1713993502.6266148,1,HELLO,-202.63671875,-88.8671875,-426.26953125,999.51171875,0.0,0
1713993502.6304839,1,HELLO,-1000.0,-1000.0,-698.2421875,207.51953125,0.0,0
1713993502.6343527,1,HELLO,-218.26171875,-233.88671875,-679.19921875,-1000.0,0.0,0
1713993502.6382217,1,HELLO,999.51171875,999.51171875,-269.04296875,-273.92578125,0.0,0
1713993502.6420906,1,HELLO,244.62890625,245.60546875,-320.3125,999.51171875,0.0,0
1713993502.6459596,1,HELLO,-1000.0,-1000.0,-622.55859375,435.546875,0.0,0
1713993502.6498284,1,HELLO,-458.984375,-638.18359375,-732.421875,-1000.0,0.0,0
1713993502.6536975,1,HELLO,999.51171875,999.51171875,-257.8125,-485.3515625,0.0,0
1713993502.6575663,1,HELLO,295.8984375,417.96875,-97.16796875,999.51171875,0.0,0
1713993502.6614351,1,HELLO,-1000.0,-1000.0,-654.296875,844.23828125,0.0,0
1713993502.6653042,1,HELLO,-959.47265625,-1000.0,-771.97265625,-677.734375,0.0,0
1713993502.669173,1,HELLO,583.984375,293.9453125,-399.4140625,-1000.0,0.0,0
1713993502.673727,1,HELLO,806.15234375,933.59375,-246.09375,400.87890625,0.0,0
1713993502.6775963,1,HELLO,-759.765625,-588.37890625,-613.28125,999.51171875,0.0,0
1713993502.6814656,1,HELLO,-1000.0,-1000.0,-726.5625,-19.53125,0.0,0
1713993502.685335,1,HELLO,-67.87109375,-164.0625,-585.9375,-1000.0,0.0,0
1713993502.6892042,1,HELLO,999.51171875,999.51171875,-286.1328125,-188.4765625,0.0,0
1713993502.6930735,1,HELLO,-174.8046875,-35.64453125,-422.8515625,999.51171875,0.0,0
1713993502.6969428,1,HELLO,-1000.0,-1000.0,-652.34375,228.02734375,0.0,0
1713993502.700812,1,HELLO,-224.609375,-318.84765625,-588.8671875,-1000.0,0.0,0
1713993502.7046814,1,HELLO,999.51171875,999.51171875,-297.8515625,-319.82421875,0.0,0
1713993502.7085507,1,HELLO,245.60546875,247.0703125,-424.31640625,999.51171875,0.0,0
1713993502.7124197,1,HELLO,-1000.0,-1000.0,-650.87890625,427.734375,0.0,0
1713993502.716289,1,HELLO,-599.609375,-795.41015625,-698.2421875,-1000.0,0.0,0
1713993502.7205408,1,HELLO,999.51171875,841.30859375,-449.21875,-856.93359375,0.0,0
1713993502.7244103,1,HELLO,421.875,547.8515625,-404.296875,708.984375,0.0,0
1713993502.7282798,1,HELLO,-1000.0,-975.09765625,-586.42578125,951.171875,0.0,0
1713993502.7321494,1,HELLO,-1000.0,-1000.0,-660.15625,-557.6171875,0.0,0
1713993502.7360187,1,HELLO,281.73828125,109.375,-562.5,-1000.0,0.0,0
1713993502.7398882,1,HELLO,956.0546875,999.51171875,-274.90234375,24.90234375,0.0,0
1713993502.7437577,1,HELLO,-573.73046875,-379.8828125,-429.6875,999.51171875,0.0,0
1713993502.7476273,1,HELLO,-1000.0,-1000.0,-667.48046875,37.109375,0.0,0
1713993502.7514966,1,HELLO,-196.2890625,-208.49609375,-642.08984375,-1000.0,0.0,0
1713993502.755366,1,HELLO,999.51171875,999.51171875,-358.88671875,-241.69921875,0.0,0
1713993502.7592356,1,HELLO,33.203125,170.8984375,-377.44140625,999.51171875,0.0,0
1713993502.7631052,1,HELLO,-1000.0,-1000.0,-572.75390625,242.1875,0.0,0
1713993502.767308,2,WORLD,-276.3671875,-452.63671875,-711.9140625,-1000.0,0.0,0
1713993502.7711775,2,WORLD,999.51171875,999.51171875,-362.3046875,-481.93359375,0.0,0
1713993502.7750473,2,WORLD,243.1640625,262.6953125,-329.1015625,999.51171875,0.0,0
1713993502.7789168,2,WORLD,-1000.0,-1000.0,-634.765625,580.56640625,0.0,0
1713993502.7827866,2,WORLD,-770.01953125,-937.01171875,-732.91015625,-1000.0,0.0,0
1713993502.7866561,2,WORLD,879.39453125,630.859375,-395.01953125,-923.33984375,0.0,0
1713993502.790526,2,WORLD,569.3359375,697.265625,-83.0078125,578.61328125,0.0,0
1713993502.7943954,2,WORLD,-969.23828125,-872.0703125,-395.01953125,999.51171875,0.0,0
1713993502.7982652,2,WORLD,-1000.0,-1000.0,-735.83984375,-281.73828125,0.0,0
1713993502.8021348,2,WORLD,155.2734375,-29.296875,-566.40625,-1000.0,0.0,0
1713993502.8060045,2,WORLD,999.51171875,999.51171875,-285.64453125,-2.44140625,0.0,0
1713993502.809874,2,WORLD,-393.5546875,-181.15234375,-525.87890625,999.51171875,0.0,0
1713993502.8140528,2,WORLD,-1000.0,-1000.0,-741.2109375,196.77734375,0.0,0
1713993502.8179226,2,WORLD,-211.42578125,-218.75,-614.2578125,-1000.0,0.0,0
1713993502.8217924,2,WORLD,999.51171875,999.51171875,-228.02734375,-266.6015625,0.0,0
1713993502.8256621,2,WORLD,200.68359375,236.81640625,-406.25,999.51171875,0.0,0
1713993502.829532,2,WORLD,-1000.0,-1000.0,-695.80078125,298.828125,0.0,0
1713993502.8334017,2,WORLD,-419.43359375,-568.359375,-610.83984375,-1000.0,0.0,0
1713993502.8372715,2,WORLD,999.51171875,999.51171875,-199.70703125,-529.296875,0.0,0
1713993502.8411415,2,WORLD,248.046875,351.07421875,-331.0546875,999.51171875,0.0,0
1713993502.8450112,2,WORLD,-1000.0,-1000.0,-626.953125,768.06640625,0.0,0
1713993502.848881,2,WORLD,-908.69140625,-1000.0,-693.359375,-790.0390625,0.0,0
1713993502.8527508,2,WORLD,687.98828125,397.4609375,-485.3515625,-1000.0,0.0,0
1713993502.8566206,2,WORLD,678.22265625,848.14453125,-357.421875,380.859375,0.0,0
1713993502.8610854,2,WORLD,-909.1796875,-708.49609375,-584.47265625,999.51171875,0.0,0
1713993502.8649554,2,WORLD,-1000.0,-1000.0,-691.89453125,-88.8671875,0.0,0
1713993502.8688257,2,WORLD,19.53125,-147.94921875,-595.703125,-1000.0,0.0,0
1713993502.8726957,2,WORLD,999.51171875,999.51171875,-326.171875,-117.1875,0.0,0
1713993502.8765657,2,WORLD,-161.1328125,-23.4375,-464.35546875,999.51171875,0.0,0
1713993502.880436,2,WORLD,-1000.0,-1000.0,-644.04296875,217.28515625,0.0,0
1713993502.884306,2,WORLD,-225.5859375,-267.08984375,-632.8125,-1000.0,0.0,0
1713993502.8881762,2,WORLD,999.51171875,999.51171875,-248.046875,-271.97265625,0.0,0
1713993502.8920462,2,WORLD,208.984375,218.75,-329.58984375,999.51171875,0.0,0
1713993502.8959162,2,WORLD,-1000.0,-1000.0,-627.44140625,448.73046875,0.0,0
1713993502.8997865,2,WORLD,-365.72265625,-558.59375,-687.01171875,-1000.0,0.0,0
1713993502.9036565,2,WORLD,999.51171875,941.40625,-341.30859375,-590.8203125,0.0,0
1713993502.908031,2,WORLD,354.4921875,475.5859375,-251.46484375,987.79296875,0.0,0
1713993502.9119012,2,WORLD,-1000.0,-1000.0,-584.47265625,902.34375,0.0,0
1713993502.9157717,2,WORLD,-1000.0,-1000.0,-732.421875,-584.47265625,0.0,0
1713993502.919642,2,WORLD,491.69921875,213.37890625,-563.4765625,-1000.0,0.0,0
1713993502.9235125,2,WORLD,826.171875,978.02734375,-261.71875,225.5859375,0.0,0
1713993502.9273827,2,WORLD,-748.046875,-517.08984375,-400.390625,999.51171875,0.0,0
1713993502.9312532,2,WORLD,-1000.0,-1000.0,-706.54296875,38.0859375,0.0,0
1713993502.9351234,2,WORLD,-108.3984375,-198.73046875,-682.6171875,-1000.0,0.0,0
1713993502.9389937,2,WORLD,999.51171875,999.51171875,-164.55078125,-237.3046875,0.0,0
1713993502.9428642,2,WORLD,-15.625,108.3984375,-211.42578125,999.51171875,0.0,0
1713993502.9467344,2,WORLD,-1000.0,-1000.0,-698.73046875,234.86328125,0.0,0
1713993502.950605,2,WORLD,-212.40234375,-361.328125,-719.7265625,-1000.0,0.0,0
1713993502.954954,2,WORLD,999.51171875,999.51171875,-191.89453125,-341.796875,0.0,0
1713993502.9588244,2,WORLD,156.25,247.0703125,-194.3359375,999.51171875,0.0,0
1713993502.9626951,2,WORLD,-1000.0,-1000.0,-660.15625,471.6796875,0.0,0
1713993502.9665656,2,WORLD,-647.4609375,-854.4921875,-755.859375,-1000.0,0.0,0
1713993502.9704363,2,WORLD,999.51171875,761.23046875,-382.32421875,-872.0703125,0.0,0
1713993502.9743068,2,WORLD,458.49609375,603.02734375,-259.765625,690.91796875,0.0,0
1713993502.9781775,2,WORLD,-1000.0,-945.3125,-583.0078125,979.98046875,0.0,0
1713993502.982048,2,WORLD,-1000.0,-1000.0,-716.30859375,-512.6953125,0.0,0
1713993502.9859185,2,WORLD,268.5546875,48.828125,-439.453125,-1000.0,0.0,0
1713993502.9897892,2,WORLD,999.51171875,999.51171875,-233.88671875,0.48828125,0.0,0
1713993502.9936597,2,WORLD,-506.34765625,-298.33984375,-560.546875,999.51171875,0.0,0
1713993502.9975305,2,WORLD,-1000.0,-1000.0,-695.3125,87.40234375,0.0,0
1713993503.0018318,2,WORLD,-205.56640625,-212.890625,-611.328125,-1000.0,0.0,0
1713993503.0057025,2,WORLD,999.51171875,999.51171875,-362.3046875,-247.0703125,0.0,0
1713993503.0095732,2,WORLD,126.46484375,208.984375,-483.3984375,999.51171875,0.0,0
1713993503.0134442,2,WORLD,-1000.0,-1000.0,-654.78515625,240.72265625,0.0,0
1713993503.017315,2,WORLD,-343.26171875,-492.67578125,-637.6953125,-1000.0,0.0,0
1713993503.0211856,2,WORLD,999.51171875,999.51171875,-285.64453125,-456.0546875,0.0,0
1713993503.0250566,2,WORLD,249.51171875,291.9921875,-312.01171875,999.51171875,0.0,0
1713993503.0289273,2,WORLD,-1000.0,-1000.0,-564.94140625,677.24609375,0.0,0
1713993503.032798,2,WORLD,-785.64453125,-992.1875,-626.46484375,-915.0390625,0.0,0
1713993503.036669,2,WORLD,856.4453125,534.1796875,-474.609375,-956.54296875,0.0,0
1713993503.0405397,2,WORLD,610.83984375,762.20703125,-351.07421875,541.9921875,0.0,0
1713993503.0444105,2,WORLD,-943.359375,-806.640625,-581.0546875,999.51171875,0.0,0
1713993503.0486805,2,WORLD,-1000.0,-1000.0,-723.14453125,-179.19921875,0.0,0
1713993503.0525515,2,WORLD,90.33203125,-88.37890625,-613.76953125,-1000.0,0.0,0
1713993503.0564227,2,WORLD,999.51171875,999.51171875,-337.890625,-34.66796875,0.0,0
1713993503.0602937,2,WORLD,-219.23828125,-102.5390625,-483.88671875,999.51171875,0.0,0
1713993503.0641646,2,WORLD,-1000.0,-1000.0,-706.54296875,208.984375,0.0,0
1713993503.0680356,2,WORLD,-218.26171875,-223.6328125,-645.99609375,-1000.0,0.0,0
1713993503.0719066,2,WORLD,999.51171875,999.51171875,-190.91796875,-271.97265625,0.0,0
1713993503.0757775,2,WORLD,244.62890625,244.62890625,-213.8671875,999.51171875,0.0,0
1713993503.0796487,2,WORLD,-1000.0,-1000.0,-613.28125,398.92578125,0.0,0
1713993503.0835197,2,WORLD,-458.49609375,-615.234375,-738.76953125,-1000.0,0.0,0
1713993503.0873907,2,WORLD,999.51171875,999.51171875,-324.70703125,-520.99609375,0.0,0
1713993503.0912616,2,WORLD,295.8984375,410.15625,-270.01953125,999.51171875,0.0,0
1713993503.0957341,2,WORLD,-1000.0,-1000.0,-653.3203125,902.34375,0.0,0
1713993503.0996053,2,WORLD,-906.25,-1000.0,-766.11328125,-650.390625,0.0,0
1713993503.1034765,2,WORLD,659.66796875,319.82421875,-431.15234375,-985.83984375,0.0,0
1713993503.107348,2,WORLD,812.01171875,935.05859375,-242.1875,508.7890625,0.0,0
1713993503.1112192,2,WORLD,-753.41796875,-589.35546875,-558.10546875,999.51171875,0.0,0
1713993503.1150906,2,WORLD,-1000.0,-1000.0,-703.125,68.84765625,0.0,0
1713993503.1189618,2,WORLD,-42.48046875,-173.828125,-497.0703125,-1000.0,0.0,0
1713993503.122833,2,WORLD,999.51171875,999.51171875,33.203125,2.44140625,0.0,0
1713993503.1267045,2,WORLD,-91.796875,53.7109375,-347.16796875,999.51171875,0.0,0
1713993503.1305757,2,WORLD,-1000.0,-1000.0,-738.76953125,201.171875,0.0,0
1713993503.1344469,2,WORLD,-225.09765625,-284.66796875,-625.48828125,-1000.0,0.0,0
1713993503.1383183,2,WORLD,999.51171875,999.51171875,-316.40625,-273.4375,0.0,0
1713993503.142529,2,WORLD,245.60546875,245.60546875,-401.85546875,999.51171875,0.0,0
1713993503.1464005,2,WORLD,-1000.0,-1000.0,-660.15625,659.66796875,0.0,0
1713993503.150272,2,WORLD,-559.08203125,-730.95703125,-679.6875,-993.65234375,0.0,0
1713993503.1541433,2,WORLD,999.51171875,913.0859375,-376.953125,-510.7421875,0.0,0
1713993503.1580148,2,WORLD,453.125,553.22265625,-330.078125,992.67578125,0.0,0
1713993503.1618865,2,WORLD,-1000.0,-970.703125,-600.09765625,999.51171875,0.0,0
1713993503.165758,2,WORLD,-1000.0,-1000.0,-689.453125,-262.20703125,0.0,0
1713993503.1696293,2,WORLD,451.66015625,154.296875,-494.62890625,-1000.0,0.0,0
1713993503.1735008,2,WORLD,946.2890625,999.51171875,-311.5234375,363.28125,0.0,0
1713993503.1773722,2,WORLD,-580.56640625,-358.88671875,-514.16015625,999.51171875,0.0,0
1713993503.1812437,2,WORLD,-1000.0,-1000.0,-660.15625,175.29296875,0.0,0
1713993503.185115,2,WORLD,-170.8984375,-211.42578125,-630.859375,-1000.0,0.0,0
1713993503.189287,2,WORLD,999.51171875,999.51171875,-255.859375,-174.8046875,0.0,0
1713993503.1931584,2,WORLD,73.2421875,187.98828125,-316.89453125,999.51171875,0.0,0
1713993503.19703,2,WORLD,-1000.0,-1000.0,-649.4140625,310.546875,0.0,0
1713993503.2009017,2,WORLD,-220.21484375,-374.51171875,-708.0078125,-1000.0,0.0,0
1713993503.2047732,2,WORLD,999.51171875,999.51171875,-326.171875,-276.85546875,0.0,0
1713993503.2086449,2,WORLD,155.2734375,178.7109375,-234.86328125,999.51171875,0.0,0
1713993503.2125165,2,WORLD,-1000.0,-1000.0,-548.828125,787.59765625,0.0,0
1713993503.216388,2,WORLD,-649.4140625,-878.41796875,-751.46484375,-842.7734375,0.0,0
1713993503.2202597,2,WORLD,999.51171875,710.9375,-408.69140625,-625.9765625,0.0,0
1713993503.2241313,2,WORLD,547.8515625,706.0546875,-197.75390625,908.69140625,0.0,0
1713993503.2280028,2,WORLD,-973.14453125,-860.83984375,-539.55078125,999.51171875,0.0,0
1713993503.2318745,2,WORLD,-1000.0,-1000.0,-762.6953125,-65.91796875,0.0,0
1713993503.2362475,2,WORLD,195.80078125,19.04296875,-544.921875,-1000.0,0.0,0
1713993503.2401192,2,WORLD,999.51171875,999.51171875,-118.65234375,324.21875,0.0,0
1713993503.2439911,2,WORLD,-326.171875,-169.43359375,-378.90625,999.51171875,0.0,0
1713993503.247863,2,WORLD,-1000.0,-1000.0,-744.62890625,165.0390625,0.0,0
1713993503.2517347,2,WORLD,-216.30859375,-220.703125,-625.48828125,-1000.0,0.0,0
1713993503.2556067,2,WORLD,999.51171875,999.51171875,-92.7734375,-83.984375,0.0,0
1713993503.2594786,2,WORLD,233.3984375,239.2578125,-222.65625,999.51171875,0.0,0
1713993503.2633502,2,WORLD,-1000.0,-1000.0,-690.91796875,629.39453125,0.0,0
1713993503.2672222,2,WORLD,-358.3984375,-510.25390625,-703.61328125,-979.4921875,0.0,0
1713993503.271094,2,WORLD,999.51171875,999.51171875,-144.53125,-298.33984375,0.0,0
1713993503.2749658,2,WORLD,246.58203125,367.67578125,-188.4765625,999.51171875,0.0,0
1713993503.2788377,2,WORLD,-1000.0,-1000.0,-715.8203125,999.51171875,0.0,0
1713993503.283189,2,WORLD,-782.71484375,-1000.0,-711.9140625,-241.69921875,0.0,0
1713993503.287061,2,WORLD,832.03125,485.3515625,-366.2109375,-529.78515625,0.0,0
1713993503.2909331,2,WORLD,729.00390625,883.7890625,-253.90625,936.5234375,0.0,0
1713993503.2948053,2,WORLD,-858.3984375,-692.3828125,-584.9609375,999.51171875,0.0,0
1713993503.2986772,2,WORLD,-1000.0,-1000.0,-716.796875,85.9375,0.0,0
1713993503.3025494,2,WORLD,135.7421875,-18.06640625,-469.7265625,-892.578125,0.0,0
1713993503.3064215,2,WORLD,999.51171875,999.51171875,-68.359375,505.859375,0.0,0
1713993503.3102934,2,WORLD,-110.3515625,0.0,-385.7421875,999.51171875,0.0,0
1713993503.3141656,2,WORLD,-1000.0,-1000.0,-699.21875,447.265625,0.0,0
1713993503.3180377,2,WORLD,-226.07421875,-235.83984375,-582.03125,-1000.0,0.0,0
1713993503.3219097,2,WORLD,999.51171875,999.51171875,-223.14453125,-163.0859375,0.0,0
1713993503.3257818,2,WORLD,243.65234375,243.65234375,-291.50390625,999.51171875,0.0,0
1713993503.3301466,2,WORLD,-1000.0,-1000.0,-685.05859375,828.125,0.0,0
1713993503.334019,2,WORLD,-463.37890625,-627.44140625,-730.95703125,-740.234375,0.0,0
1713993503.337891,2,WORLD,999.51171875,999.51171875,-322.265625,-327.63671875,0.0,0
1713993503.3417635,2,WORLD,373.53515625,490.234375,-265.625,999.51171875,0.0,0
1713993503.345636,2,WORLD,-1000.0,-1000.0,-625.9765625,999.51171875,0.0,0
1713993503.349508,2,WORLD,-952.1484375,-1000.0,-714.35546875,-98.6328125,0.0,0
1713993503.3533804,2,WORLD,572.265625,280.76171875,-391.6015625,-593.26171875,0.0,0
1713993503.3572526,2,WORLD,922.8515625,999.51171875,-86.9140625,883.7890625,0.0,0
1713993503.361125,2,WORLD,-610.83984375,-449.21875,-428.22265625,999.51171875,0.0,0
1713993503.3649974,2,WORLD,-1000.0,-1000.0,-727.5390625,148.92578125,0.0,0
1713993503.3688695,2,WORLD,-83.0078125,-187.01171875,-621.09375,-1000.0,0.0,0
1713993503.372742,2,WORLD,999.51171875,999.51171875,-157.71484375,133.30078125,0.0,0
1713993503.377022,2,WORLD,14.6484375,146.484375,-303.7109375,999.51171875,0.0,0
1713993503.3808944,2,WORLD,-1000.0,-1000.0,-751.46484375,477.5390625,0.0,0
1713993503.384767,2,WORLD,-235.3515625,-306.640625,-744.140625,-1000.0,0.0,0
1713993503.3886395,2,WORLD,999.51171875,999.51171875,-151.85546875,-275.390625,0.0,0
1713993503.392512,2,WORLD,244.62890625,243.65234375,-121.58203125,999.51171875,0.0,0
1713993503.3963845,2,WORLD,-1000.0,-1000.0,-647.94921875,915.52734375,0.0,0
1713993503.4002569,2,WORLD,-560.546875,-760.25390625,-762.6953125,-656.25,0.0,0
1713993503.4041295,2,WORLD,999.51171875,868.65234375,-231.4453125,-458.984375,0.0,0
1713993503.408002,2,WORLD,521.484375,642.08984375,98.14453125,999.51171875,0.0,0
1713993503.4118745,2,WORLD,-992.1875,-911.62109375,-525.390625,999.51171875,0.0,0
1713993503.415747,2,WORLD,-1000.0,-1000.0,-815.4296875,-55.17578125,0.0,0
1713993503.4196196,2,WORLD,320.3125,120.1171875,-433.10546875,-1000.0,0.0,0
1713993503.4238467,2,WORLD,999.51171875,999.51171875,-80.078125,438.4765625,0.0,0
1713993503.4277194,2,WORLD,-403.3203125,-227.5390625,-480.46875,999.51171875,0.0,0
1713993503.431592,2,WORLD,-1000.0,-1000.0,-777.34375,175.78125,0.0,0
1713993503.4354649,2,WORLD,-207.51953125,-218.75,-602.05078125,-1000.0,0.0,0
1713993503.4393375,2,WORLD,999.51171875,999.51171875,-194.3359375,-211.42578125,0.0,0
1713993503.4432101,2,WORLD,133.30078125,225.09765625,-347.16796875,999.51171875,0.0,0
1713993503.4470828,2,WORLD,-1000.0,-1000.0,-712.890625,435.546875,0.0,0
1713993503.4509554,2,WORLD,-245.1171875,-433.59375,-634.765625,-1000.0,0.0,0
1713993503.454828,2,WORLD,999.51171875,999.51171875,-207.51953125,-347.65625,0.0,0
1713993503.4587007,2,WORLD,236.81640625,309.5703125,-304.19921875,999.51171875,0.0,0
1713993503.4625733,2,WORLD,-1000.0,-1000.0,-679.19921875,801.26953125,0.0,0
1713993503.466446,2,WORLD,-731.93359375,-918.45703125,-725.5859375,-794.43359375,0.0,0
1713993503.47066,2,WORLD,911.1328125,644.53125,-393.5546875,-798.828125,0.0,0
1713993503.4745328,2,WORLD,647.4609375,792.48046875,-297.36328125,746.09375,0.0,0
1713993503.4784055,2,WORLD,-916.50390625,-771.484375,-585.44921875,999.51171875,0.0,0
1713993503.4822783,2,WORLD,-1000.0,-1000.0,-697.75390625,-27.34375,0.0,0
1713993503.4861512,2,WORLD,127.44140625,-19.04296875,-547.8515625,-1000.0,0.0,0
1713993503.490024,2,WORLD,999.51171875,999.51171875,-122.55859375,191.40625,0.0,0
1713993503.4938967,2,WORLD,-211.42578125,-81.0546875,-316.89453125,999.51171875,0.0,0
1713993503.4977696,2,WORLD,-1000.0,-1000.0,-661.62109375,190.91796875,0.0,0
1713993503.5016425,2,WORLD,-219.23828125,-227.05078125,-667.48046875,-1000.0,0.0,0
1713993503.5055153,2,WORLD,999.51171875,999.51171875,-215.8203125,-271.97265625,0.0,0
1713993503.5093882,2,WORLD,241.69921875,245.1171875,-314.453125,999.51171875,0.0,0
1713993503.5132608,2,WORLD,-1000.0,-1000.0,-731.93359375,569.82421875,0.0,0
1713993503.517676,2,WORLD,-395.01953125,-552.24609375,-740.234375,-1000.0,0.0,0
1713993503.5215492,2,WORLD,999.51171875,999.51171875,-270.5078125,-397.4609375,0.0,0
1713993503.5254223,2,WORLD,351.5625,448.2421875,-227.05078125,999.51171875,0.0,0
1713993503.5292954,2,WORLD,-1000.0,-1000.0,-691.40625,999.51171875,0.0,0
1713993503.5331683,2,WORLD,-800.78125,-940.4296875,-734.375,-391.11328125,0.0,0
1713993503.5370414,2,WORLD,854.98046875,600.09765625,-321.2890625,-782.2265625,0.0,0
1713993503.5409145,2,WORLD,794.43359375,941.89453125,62.5,684.08203125,0.0,0
1713993503.5447876,2,WORLD,-760.7421875,-562.01171875,-337.40234375,999.51171875,0.0,0
1713993503.5486608,2,WORLD,-1000.0,-1000.0,-783.203125,137.20703125,0.0,0
1713993503.5525339,2,WORLD,11.23046875,-137.20703125,-557.6171875,-1000.0,0.0,0
1713993503.5564067,2,WORLD,999.51171875,999.51171875,-124.51171875,6.34765625,0.0,0
1713993503.5602798,2,WORLD,-50.78125,73.73046875,-406.25,999.51171875,0.0,0
1713993503.5646675,2,WORLD,-1000.0,-1000.0,-782.2265625,228.515625,0.0,0
1713993503.5685408,2,WORLD,-231.4453125,-261.71875,-647.4609375,-1000.0,0.0,0
1713993503.5724142,2,WORLD,999.51171875,999.51171875,-145.01953125,-275.390625,0.0,0
1713993503.5762875,2,WORLD,244.62890625,244.140625,-295.41015625,999.51171875,0.0,0
1713993503.5801609,2,WORLD,-1000.0,-1000.0,-739.74609375,713.8671875,0.0,0
1713993503.584034,2,WORLD,-528.3203125,-675.29296875,-659.1796875,-936.5234375,0.0,0
1713993503.5879073,2,WORLD,999.51171875,968.75,-166.50390625,-539.55078125,0.0,0
1713993503.5917807,2,WORLD,448.2421875,568.359375,-219.23828125,965.33203125,0.0,0
1713993503.595654,2,WORLD,-1000.0,-967.7734375,-673.828125,999.51171875,0.0,0
1713993503.5995274,2,WORLD,-1000.0,-1000.0,-672.8515625,-180.6640625,0.0,0
1713993503.6034007,2,WORLD,451.66015625,219.7265625,-361.81640625,-1000.0,0.0,0
1713993503.6072738,2,WORLD,995.1171875,999.51171875,-194.82421875,369.140625,0.0,0
1713993503.6118598,2,WORLD,-517.578125,-327.1484375,-497.55859375,999.51171875,0.0,0
1713993503.6157336,2,WORLD,-1000.0,-1000.0,-719.7265625,177.734375,0.0,0
1713993503.6196072,2,WORLD,-104.98046875,-205.56640625,-599.12109375,-1000.0,0.0,0
1713993503.6234808,2,WORLD,999.51171875,999.51171875,-198.2421875,-203.125,0.0,0
1713993503.6273544,2,WORLD,110.83984375,201.171875,-362.79296875,999.51171875,0.0,0
1713993503.631228,2,WORLD,-1000.0,-1000.0,-720.21484375,346.19140625,0.0,0
1713993503.6351018,2,WORLD,-247.0703125,-355.46875,-687.98828125,-1000.0,0.0,0
1713993503.6389754,2,WORLD,999.51171875,999.51171875,-104.4921875,-309.5703125,0.0,0
1713993503.642849,2,WORLD,242.1875,278.80859375,-158.69140625,999.51171875,0.0,0
1713993503.6467226,2,WORLD,-1000.0,-1000.0,-676.26953125,734.375,0.0,0
1713993503.6505961,2,WORLD,-649.4140625,-815.91796875,-766.11328125,-852.05078125,0.0,0
1713993503.65447,2,WORLD,999.51171875,796.875,-305.6640625,-848.6328125,0.0,0
1713993503.6588004,2,WORLD,561.03515625,712.890625,-101.07421875,725.5859375,0.0,0
1713993503.6626742,2,WORLD,-974.609375,-850.09765625,-595.21484375,999.51171875,0.0,0
1713993503.666548,2,WORLD,-1000.0,-1000.0,-801.7578125,-216.796875,0.0,0
1713993503.6704218,2,WORLD,234.375,65.91796875,-537.59765625,-1000.0,0.0,0
1713993503.6742957,2,WORLD,999.51171875,999.51171875,-77.63671875,7.32421875,0.0,0
1713993503.6781695,2,WORLD,-281.25,-156.25,-333.49609375,999.51171875,0.0,0
1713993503.6820433,2,WORLD,-1000.0,-1000.0,-768.5546875,189.94140625,0.0,0
1713993503.6859171,2,WORLD,-218.26171875,-223.14453125,-679.19921875,-1000.0,0.0,0
1713993503.689791,2,WORLD,999.51171875,999.51171875,-62.01171875,-262.6953125,0.0,0
1713993503.693665,2,WORLD,235.83984375,239.2578125,-199.21875,999.51171875,0.0,0
1713993503.6975389,2,WORLD,-1000.0,-1000.0,-767.578125,244.62890625,0.0,0
1713993503.7014127,2,WORLD,-358.88671875,-486.81640625,-770.5078125,-1000.0,0.0,0
1713993503.7056973,2,WORLD,999.51171875,999.51171875,-108.88671875,-570.80078125,0.0,0
1713993503.7095714,2,WORLD,248.53515625,355.46875,-54.6875,999.51171875,0.0,0
1713993503.7134452,2,WORLD,-1000.0,-1000.0,-690.4296875,601.07421875,0.0,0
1713993503.7173193,2,WORLD,-767.08984375,-996.58203125,-771.97265625,-950.68359375,0.0,0
1713993503.7211933,2,WORLD,794.43359375,520.01953125,-272.94921875,-1000.0,0.0,0
1713993503.7250674,2,WORLD,568.84765625,850.09765625,-14.16015625,291.015625,0.0,0
1713993503.7289414,2,WORLD,-901.3671875,-704.58984375,-516.6015625,999.51171875,0.0,0
1713993503.7328155,2,WORLD,-1000.0,-1000.0,-803.22265625,-271.484375,0.0,0
1713993503.7366893,2,WORLD,60.05859375,-100.09765625,-421.38671875,-1000.0,0.0,0
1713993503.7405634,2,WORLD,999.51171875,999.51171875,-101.07421875,-215.8203125,0.0,0
1713993503.7444375,2,WORLD,-142.08984375,-20.99609375,-501.953125,999.51171875,0.0,0
1713993503.7483115,2,WORLD,-1000.0,-1000.0,-724.12109375,227.05078125,0.0,0
1713993503.7525687,2,WORLD,-225.5859375,-232.421875,-646.97265625,-1000.0,0.0,0
1713993503.756443,2,WORLD,999.51171875,999.51171875,-283.203125,-417.96875,0.0,0
1713993503.760317,2,WORLD,225.5859375,227.5390625,-403.3203125,999.51171875,0.0,0
1713993503.7641914,2,WORLD,-1000.0,-1000.0,-698.2421875,333.984375,0.0,0
1713993503.7680655,2,WORLD,-374.0234375,-534.1796875,-684.5703125,-1000.0,0.0,0
1713993503.7719398,2,WORLD,999.51171875,999.51171875,-230.46875,-758.7890625,0.0,0
1713993503.775814,2,WORLD,352.5390625,483.3984375,-195.80078125,802.24609375,0.0,0
1713993503.7796881,2,WORLD,-1000.0,-1000.0,-612.79296875,903.3203125,0.0,0
1713993503.7835624,2,WORLD,-916.50390625,-1000.0,-681.640625,-623.046875,0.0,0
1713993503.7874365,2,WORLD,625.0,303.7109375,-474.12109375,-1000.0,0.0,0
1713993503.7913108,2,WORLD,903.3203125,999.51171875,-262.20703125,105.46875,0.0,0
1713993503.795185,2,WORLD,-631.34765625,-462.40234375,-550.78125,999.51171875,0.0,0
1713993503.7996705,2,WORLD,-1000.0,-1000.0,-782.2265625,29.78515625,0.0,0
1713993503.803545,2,WORLD,-75.1953125,-182.6171875,-631.34765625,-1000.0,0.0,0
1713993503.8074193,2,WORLD,999.51171875,999.51171875,-205.078125,-242.67578125,0.0,0
1713993503.8112938,2,WORLD,15.13671875,127.9296875,-386.23046875,999.51171875,0.0,0
1713993503.8151684,2,WORLD,-1000.0,-1000.0,-756.34765625,239.2578125,0.0,0
1713993503.819043,2,WORLD,-216.796875,-292.96875,-666.50390625,-1000.0,0.0,0
1713993503.8229172,2,WORLD,999.51171875,999.51171875,-166.50390625,-403.3203125,0.0,0
1713993503.8267918,2,WORLD,156.25,156.73828125,-170.8984375,999.51171875,0.0,0
1713993503.8306663,2,WORLD,-1000.0,-1000.0,-644.53125,499.51171875,0.0,0
1713993503.8345406,2,WORLD,-568.84765625,-768.06640625,-781.25,-1000.0,0.0,0
1713993503.8384151,2,WORLD,999.51171875,862.79296875,-295.41015625,-907.2265625,0.0,0
1713993503.8422897,2,WORLD,489.2578125,616.69921875,-157.2265625,614.74609375,0.0,0
1713993503.8464966,2,WORLD,-1000.0,-935.05859375,-645.5078125,999.51171875,0.0,0
1713993503.8503711,2,WORLD,-1000.0,-1000.0,-807.6171875,-406.73828125,0.0,0
1713993503.854246,2,WORLD,313.96484375,122.55859375,-458.984375,-1000.0,0.0,0
1713993503.8581204,2,WORLD,999.51171875,999.51171875,-118.65234375,12.6953125,0.0,0
1713993503.861995,2,WORLD,-403.3203125,-252.44140625,-479.4921875,999.51171875,0.0,0
1713993503.8658698,2,WORLD,-1000.0,-1000.0,-748.53515625,167.48046875,0.0,0
1713993503.8697443,2,WORLD,-207.51953125,-217.28515625,-552.24609375,-1000.0,0.0,0
1713993503.8736188,2,WORLD,999.51171875,999.51171875,-120.60546875,-258.7890625,0.0,0
1713993503.8774936,2,WORLD,133.30078125,221.6796875,-383.7890625,999.51171875,0.0,0
1713993503.8813682,2,WORLD,-1000.0,-1000.0,-781.73828125,235.3515625,0.0,0
1713993503.885243,2,WORLD,-245.1171875,-438.4765625,-630.859375,-1000.0,0.0,0
1713993503.8891175,2,WORLD,999.51171875,999.51171875,-72.265625,-704.1015625,0.0,0
1713993503.8932838,2,WORLD,235.83984375,294.921875,-265.13671875,940.4296875,0.0,0
1713993503.8971586,2,WORLD,-1000.0,-1000.0,-712.890625,490.234375,0.0,0
1713993503.9010334,2,WORLD,-750.0,-924.31640625,-733.88671875,-974.12109375,0.0,0
1713993503.9049082,2,WORLD,895.01953125,640.625,-432.12890625,-1000.0,0.0,0
1713993503.908783,2,WORLD,621.09375,765.625,-307.6171875,26.85546875,0.0,0
1713993503.9126577,2,WORLD,-936.03515625,-802.24609375,-624.51171875,962.890625,0.0,0
1713993503.9165325,2,WORLD,-1000.0,-1000.0,-689.453125,-482.421875,0.0,0
1713993503.9204073,2,WORLD,125.48828125,-23.92578125,-487.3046875,-1000.0,0.0,0
1713993503.924282,2,WORLD,999.51171875,999.51171875,-260.25390625,-209.9609375,0.0,0
1713993503.9281569,2,WORLD,-211.42578125,-104.00390625,-478.515625,999.51171875,0.0,0
1713993503.9320314,2,WORLD,-1000.0,-1000.0,-741.69921875,97.65625,0.0,0
1713993503.9359062,2,WORLD,-219.23828125,-225.09765625,-682.6171875,-1000.0,0.0,0
1713993503.9400444,2,WORLD,999.51171875,999.51171875,-281.73828125,-556.15234375,0.0,0
1713993503.9439192,2,WORLD,244.140625,245.60546875,-342.7734375,999.51171875,0.0,0
1713993503.9477942,2,WORLD,-1000.0,-1000.0,-689.453125,256.34765625,0.0,0
1713993503.951669,2,WORLD,-436.03515625,-570.3125,-751.953125,-1000.0,0.0,0
1713993503.9555438,2,WORLD,999.51171875,999.51171875,-348.6328125,-1000.0,0.0,0
1713993503.9594188,2,WORLD,259.27734375,385.7421875,-236.328125,375.9765625,0.0,0
1713993503.9632936,2,WORLD,-1000.0,-1000.0,-575.1953125,543.45703125,0.0,0
1713993503.9671686,2,WORLD,-904.78515625,-1000.0,-785.64453125,-964.84375,0.0,0
1713993503.9710433,2,WORLD,668.9453125,376.46484375,-504.39453125,-1000.0,0.0,0
1713993503.9749181,2,WORLD,764.6484375,904.78515625,-208.984375,-83.984375,0.0,0
1713993503.9787931,2,WORLD,-814.94140625,-633.7890625,-513.18359375,924.8046875,0.0,0
1713993503.982668,2,WORLD,-1000.0,-1000.0,-794.921875,-486.328125,0.0,0
1713993503.9869843,2,WORLD,5.859375,-157.2265625,-622.0703125,-1000.0,0.0,0
1713993503.9908595,2,WORLD,999.51171875,999.51171875,-197.265625,-223.6328125,0.0,0
1713993503.9947345,2,WORLD,-98.14453125,28.3203125,-402.34375,999.51171875,0.0,0
1713993503.9986095,2,WORLD,-1000.0,-1000.0,-748.046875,182.6171875,0.0,0
1713993504.0024846,2,WORLD,-226.07421875,-276.3671875,-657.2265625,-1000.0,0.0,0
1713993504.0063596,2,WORLD,999.51171875,999.51171875,-82.51953125,-587.890625,0.0,0
1713993504.0102348,2,WORLD,245.60546875,245.1171875,-152.34375,999.51171875,0.0,0
1713993504.0141098,2,WORLD,-1000.0,-1000.0,-680.6640625,265.13671875,0.0,0
1713993504.0179849,2,WORLD,-556.15234375,-729.00390625,-735.3515625,-1000.0,0.0,0
1713993504.02186,2,WORLD,999.51171875,918.45703125,-277.34375,-1000.0,0.0,0
1713993504.025735,2,WORLD,377.44140625,510.7421875,-265.625,317.87109375,0.0,0
1713993504.0296102,2,WORLD,-1000.0,-992.67578125,-693.359375,692.87109375,0.0,0
1713993504.033892,2,WORLD,-1000.0,-1000.0,-733.88671875,-870.1171875,0.0,0
1713993504.0377672,2,WORLD,438.96484375,164.55078125,-472.65625,-1000.0,0.0,0
1713993504.0416424,2,WORLD,921.875,999.51171875,-292.48046875,-143.06640625,0.0,0
1713993504.0455177,2,WORLD,-614.2578125,-430.17578125,-555.17578125,999.51171875,0.0,0
1713993504.0493927,2,WORLD,-1000.0,-1000.0,-734.375,-124.0234375,0.0,0
1713993504.053268,2,WORLD,-172.8515625,-207.51953125,-590.33203125,-1000.0,0.0,0
1713993504.0571432,2,WORLD,999.51171875,999.51171875,-197.75390625,-264.16015625,0.0,0
1713993504.0610185,2,WORLD,27.34375,154.296875,-405.76171875,999.51171875,0.0,0
1713993504.0648937,2,WORLD,-1000.0,-1000.0,-675.29296875,234.86328125,0.0,0
1713993504.068769,2,WORLD,-232.91015625,-395.99609375,-596.19140625,-1000.0,0.0,0
1713993504.0726442,2,WORLD,999.51171875,999.51171875,-331.0546875,-765.13671875,0.0,0
1713993504.0765195,2,WORLD,243.65234375,247.55859375,-382.32421875,864.2578125,0.0,0
1713993504.0807796,2,WORLD,-1000.0,-1000.0,-665.52734375,366.69921875,0.0,0
1713993504.084655,2,WORLD,-655.76171875,-895.99609375,-746.58203125,-1000.0,0.0,0
1713993504.0885303,2,WORLD,999.51171875,698.73046875,-431.640625,-1000.0,0.0,0
1713993504.0924058,2,WORLD,492.1875,642.578125,-335.44921875,148.4375,0.0,0
1713993504.0962813,2,WORLD,-996.09375,-917.48046875,-594.23828125,721.6796875,0.0,0
1713993504.1001565,2,WORLD,-1000.0,-1000.0,-704.1015625,-809.08203125,0.0,0
1713993504.104032,2,WORLD,180.17578125,13.18359375,-515.13671875,-1000.0,0.0,0
1713993504.1079073,2,WORLD,999.51171875,999.51171875,-191.40625,-181.15234375,0.0,0
1713993504.1117828,2,WORLD,-419.921875,-243.65234375,-410.64453125,999.51171875,0.0,0
1713993504.1156583,2,WORLD,-1000.0,-1000.0,-674.8046875,-110.3515625,0.0,0
1713993504.1195335,2,WORLD,-206.54296875,-215.8203125,-649.4140625,-1000.0,0.0,0
1713993504.123409,2,WORLD,999.51171875,999.51171875,-293.9453125,-449.70703125,0.0,0
1713993504.1276612,2,WORLD,139.6484375,222.65625,-391.11328125,999.51171875,0.0,0
1713993504.1315367,2,WORLD,-1000.0,-1000.0,-697.75390625,231.93359375,0.0,0
1713993504.1354122,2,WORLD,-348.6328125,-536.1328125,-735.3515625,-1000.0,0.0,0
1713993504.139288,2,WORLD,999.51171875,999.51171875,-343.26171875,-1000.0,0.0,0
1713993504.1431634,2,WORLD,240.72265625,300.78125,-301.26953125,479.98046875,0.0,0
1713993504.147039,2,WORLD,-1000.0,-1000.0,-619.140625,363.28125,0.0,0
1713993504.1509147,2,WORLD,-891.6015625,-1000.0,-733.88671875,-1000.0,0.0,0
1713993504.1547902,2,WORLD,719.7265625,446.77734375,-332.03125,-1000.0,0.0,0
1713993504.1586657,2,WORLD,622.0703125,772.4609375,-91.796875,-30.76171875,0.0,0
1713993504.1625414,2,WORLD,-940.4296875,-795.8984375,-590.8203125,623.53515625,0.0,0
1713993504.166417,2,WORLD,-1000.0,-1000.0,-736.81640625,-825.68359375,0.0,0
1713993504.1702924,2,WORLD,25.390625,-131.8359375,-558.59375,-1000.0,0.0,0
1713993504.174505,2,WORLD,999.51171875,999.51171875,-295.41015625,-428.22265625,0.0,0
1713993504.1783807,2,WORLD,-223.14453125,-91.30859375,-474.12109375,955.56640625,0.0,0
1713993504.1822562,2,WORLD,-1000.0,-1000.0,-700.68359375,-116.2109375,0.0,0
1713993504.186132,2,WORLD,-217.28515625,-251.46484375,-650.87890625,-1000.0,0.0,0
1713993504.1900077,2,WORLD,999.51171875,999.51171875,-350.5859375,-812.5,0.0,0
1713993504.1938834,2,WORLD,246.09375,247.0703125,-394.53125,700.68359375,0.0,0
1713993504.1977592,2,WORLD,-1000.0,-1000.0,-630.859375,312.5,0.0,0
1713993504.201635,2,WORLD,-527.83203125,-683.59375,-633.30078125,-1000.0,0.0,0
1713993504.2055106,2,WORLD,999.51171875,967.7734375,-353.515625,-1000.0,0.0,0
1713993504.2093863,2,WORLD,293.45703125,421.875,-401.3671875,338.8671875,0.0,0
1713993504.213262,2,WORLD,-1000.0,-1000.0,-626.46484375,636.71875,0.0,0
1713993504.2171378,2,WORLD,-1000.0,-1000.0,-704.1015625,-931.640625,0.0,0
1713993504.221319,2,WORLD,486.81640625,246.58203125,-523.92578125,-1000.0,0.0,0
1713993504.225195,2,WORLD,828.61328125,939.94140625,-380.859375,-43.9453125,0.0,0
1713993504.2290707,2,WORLD,-748.046875,-576.171875,-541.50390625,999.51171875,0.0,0
1713993504.2329464,2,WORLD,-1000.0,-1000.0,-649.4140625,-160.64453125,0.0,0
1713993504.2368224,2,WORLD,-87.40234375,-190.4296875,-619.140625,-1000.0,0.0,0
1713993504.240698,2,WORLD,999.51171875,999.51171875,-227.05078125,-220.21484375,0.0,0
1713993504.244574,2,WORLD,-74.21875,74.21875,-313.96484375,999.51171875,0.0,0
1713993504.2484498,2,WORLD,-1000.0,-1000.0,-601.07421875,237.79296875,0.0,0
1713993504.2523258,2,WORLD,-225.5859375,-317.87109375,-687.98828125,-1000.0,0.0,0
1713993504.2562015,2,WORLD,999.51171875,999.51171875,-354.00390625,-325.68359375,0.0,0
1713993504.2600775,2,WORLD,245.60546875,247.55859375,-367.67578125,999.51171875,0.0,0
1713993504.2639532,2,WORLD,-1000.0,-1000.0,-666.9921875,556.15234375,0.0,0
1713993504.268545,2,WORLD,-576.171875,-778.3203125,-736.328125,-1000.0,0.0,0
1713993504.272421,2,WORLD,999.51171875,857.91015625,-363.28125,-641.6015625,0.0,0
1713993504.276297,2,WORLD,447.265625,593.75,-270.01953125,889.6484375,0.0,0
1713993504.2801733,2,WORLD,-1000.0,-952.1484375,-628.90625,999.51171875,0.0,0
1713993504.2840495,2,WORLD,-1000.0,-1000.0,-745.1171875,-261.71875,0.0,0
1713993504.2879255,2,WORLD,310.546875,123.046875,-487.79296875,-1000.0,0.0,0
1713993504.2918017,2,WORLD,999.51171875,999.51171875,41.9921875,216.30859375,0.0,0
1713993504.295678,2,WORLD,-478.515625,-299.31640625,-246.58203125,999.51171875,0.0,0
1713993504.299554,2,WORLD,-1000.0,-1000.0,-764.16015625,169.43359375,0.0,0
1713993504.30343,2,WORLD,-207.51953125,-215.33203125,-614.74609375,-1000.0,0.0,0
1713993504.3073063,2,WORLD,999.51171875,999.51171875,-122.55859375,-181.640625,0.0,0
1713993504.3111825,2,WORLD,133.30078125,215.33203125,-334.9609375,999.51171875,0.0,0
1713993504.3153262,2,WORLD,-1000.0,-1000.0,-742.1875,324.21875,0.0,0
1713993504.3192024,2,WORLD,-245.1171875,-419.921875,-675.29296875,-1000.0,0.0,0
1713993504.3230786,2,WORLD,999.51171875,999.51171875,-241.2109375,-324.21875,0.0,0
1713993504.3269548,2,WORLD,242.1875,295.41015625,-313.96484375,999.51171875,0.0,0
1713993504.3308313,2,WORLD,-1000.0,-1000.0,-675.29296875,820.3125,0.0,0
1713993504.3347075,2,WORLD,-651.85546875,-893.06640625,-648.92578125,-791.50390625,0.0,0
1713993504.3385837,2,WORLD,997.55859375,694.3359375,-277.34375,-733.3984375,0.0,0
1713993504.34246,2,WORLD,631.34765625,749.51171875,-276.85546875,819.82421875,0.0,0
1713993504.3463364,2,WORLD,-921.38671875,-836.42578125,-603.02734375,999.51171875,0.0,0
1713993504.3502126,2,WORLD,-1000.0,-1000.0,-681.15234375,-7.32421875,0.0,0
1713993504.3540888,2,WORLD,176.26953125,10.25390625,-532.71484375,-1000.0,0.0,0
1713993504.357965,2,WORLD,999.51171875,999.51171875,-236.81640625,65.91796875,0.0,0
1713993504.3622663,2,WORLD,-215.33203125,-79.1015625,-460.44921875,999.51171875,0.0,0
1713993504.3661427,2,WORLD,-1000.0,-1000.0,-659.66796875,193.84765625,0.0,0
1713993504.3700192,2,WORLD,-219.7265625,-228.515625,-556.640625,-1000.0,0.0,0
1713993504.3738954,2,WORLD,999.51171875,999.51171875,-238.76953125,-276.85546875,0.0,0
1713993504.3777719,2,WORLD,240.234375,244.62890625,-337.40234375,999.51171875,0.0,0
1713993504.3816483,2,WORLD,-1000.0,-1000.0,-649.90234375,506.34765625,0.0,0
1713993504.3855247,2,WORLD,-365.72265625,-508.30078125,-687.98828125,-1000.0,0.0,0
1713993504.3894012,2,WORLD,999.51171875,999.51171875,-187.01171875,-465.8203125,0.0,0
1713993504.3932776,2,WORLD,342.7734375,429.6875,-150.87890625,999.51171875,0.0,0
1713993504.397154,2,WORLD,-1000.0,-1000.0,-645.99609375,882.8125,0.0,0
1713993504.4010305,2,WORLD,-833.0078125,-1000.0,-758.7890625,-614.74609375,0.0,0
1713993504.404907,2,WORLD,774.4140625,459.47265625,-394.53125,-1000.0,0.0,0
1713993504.4091773,2,WORLD,797.8515625,945.3125,-94.7265625,421.38671875,0.0,0
1713993504.413054,2,WORLD,-754.8828125,-577.1484375,-498.53515625,999.51171875,0.0,0
1713993504.4169307,2,WORLD,-1000.0,-1000.0,-780.76171875,-35.64453125,0.0,0
1713993504.4208071,2,WORLD,35.64453125,-128.41796875,-619.140625,-1000.0,0.0,0
1713993504.4246838,2,WORLD,999.51171875,999.51171875,-203.125,-187.5,0.0,0
1713993504.4285605,2,WORLD,-187.5,40.52734375,-335.9375,999.51171875,0.0,0
1713993504.432437,2,WORLD,-1000.0,-1000.0,-712.890625,228.02734375,0.0,0
1713993504.4363136,2,WORLD,-226.5625,-260.7421875,-722.16796875,-1000.0,0.0,0
1713993504.4401903,2,WORLD,999.51171875,999.51171875,-132.8125,-309.5703125,0.0,0
1713993504.4440668,2,WORLD,245.1171875,244.62890625,-104.00390625,999.51171875,0.0,0
1713993504.4479434,2,WORLD,-1000.0,-1000.0,-716.796875,439.94140625,0.0,0
1713993504.4518201,2,WORLD,-538.0859375,-683.10546875,-766.6015625,-1000.0,0.0,0
1713993504.4560568,2,WORLD,999.51171875,966.30859375,-294.43359375,-706.0546875,0.0,0
1713993504.4599335,2,WORLD,408.69140625,515.625,-281.25,857.91015625,0.0,0
1713993504.4638104,2,WORLD,-1000.0,-990.72265625,-661.1328125,999.51171875,0.0,0
1713993504.4676871,2,WORLD,-1000.0,-1000.0,-747.0703125,-504.39453125,0.0,0
1713993504.4715638,2,WORLD,466.30859375,205.56640625,-468.26171875,-1000.0,0.0,0
1713993504.4754407,2,WORLD,933.10546875,999.51171875,-162.109375,271.484375,0.0,0
1713993504.4793174,2,WORLD,-604.4921875,-432.12890625,-474.12109375,999.51171875,0.0,0
1713993504.483194,2,WORLD,-1000.0,-1000.0,-763.18359375,138.18359375,0.0,0
1713993504.4870708,2,WORLD,-126.953125,-207.51953125,-517.578125,-1000.0,0.0,0
1713993504.4909477,2,WORLD,999.51171875,999.51171875,-158.203125,-258.30078125,0.0,0
1713993504.4948244,2,WORLD,20.5078125,147.94921875,-478.02734375,999.51171875,0.0,0
1713993504.498701,2,WORLD,-1000.0,-1000.0,-724.12109375,235.83984375,0.0,0
1713993504.5029123,2,WORLD,-234.375,-376.46484375,-660.64453125,-1000.0,0.0,0
1713993504.5067892,2,WORLD,999.51171875,999.51171875,-344.23828125,-381.34765625,0.0,0
1713993504.510666,2,WORLD,244.140625,246.09375,-410.64453125,999.51171875,0.0,0
1713993504.5145428,2,WORLD,-1000.0,-1000.0,-656.25,574.70703125,0.0,0
1713993504.5184197,2,WORLD,-648.4375,-873.046875,-699.21875,-1000.0,0.0,0
1713993504.5222967,2,WORLD,999.51171875,728.02734375,-344.7265625,-905.76171875,0.0,0
1713993504.5261736,2,WORLD,511.71875,645.99609375,-253.90625,618.65234375,0.0,0
1713993504.5300505,2,WORLD,-995.60546875,-915.52734375,-559.5703125,999.51171875,0.0,0
1713993504.5339274,2,WORLD,-1000.0,-1000.0,-640.625,-307.12890625,0.0,0
1713993504.5378044,2,WORLD,236.328125,39.0625,-581.54296875,-1000.0,0.0,0
1713993504.541681,2,WORLD,999.51171875,999.51171875,-348.14453125,-16.11328125,0.0,0
1713993504.545558,2,WORLD,-400.390625,-233.88671875,-520.5078125,999.51171875,0.0,0
1713993504.54974,2,WORLD,-1000.0,-1000.0,-751.46484375,168.45703125,0.0,0
1713993504.553617,2,WORLD,-207.03125,-217.28515625,-686.03515625,-1000.0,0.0,0
1713993504.5574942,2,WORLD,999.51171875,999.51171875,-262.6953125,-260.25390625,0.0,0
1713993504.561371,2,WORLD,139.6484375,227.5390625,-376.953125,999.51171875,0.0,0
1713993504.5652483,2,WORLD,-1000.0,-1000.0,-701.171875,270.99609375,0.0,0
1713993504.5691252,2,WORLD,-344.7265625,-495.1171875,-682.12890625,-1000.0,0.0,0
1713993504.573002,2,WORLD,999.51171875,999.51171875,-271.97265625,-473.6328125,0.0,0
1713993504.5768793,2,WORLD,249.51171875,323.2421875,-166.9921875,999.51171875,0.0,0
1713993504.5807562,2,WORLD,-1000.0,-1000.0,-578.125,700.68359375,0.0,0
1713993504.5846334,2,WORLD,-785.64453125,-995.1171875,-791.9921875,-876.953125,0.0,0
1713993504.5885103,2,WORLD,850.5859375,520.5078125,-389.6484375,-1000.0,0.0,0
1713993504.5923872,2,WORLD,657.2265625,821.2890625,-155.2734375,473.6328125,0.0,0
1713993504.596559,2,WORLD,-911.1328125,-740.72265625,-583.0078125,999.51171875,0.0,0
1713993504.6004362,2,WORLD,-1000.0,-1000.0,-786.1328125,-164.55078125,0.0,0
1713993504.6043134,2,WORLD,76.171875,-94.7265625,-559.08203125,-1000.0,0.0,0
1713993504.6081905,2,WORLD,999.51171875,999.51171875,-214.35546875,-153.3203125,0.0,0
1713993504.6120677,2,WORLD,-206.0546875,-56.640625,-437.5,999.51171875,0.0,0
1713993504.6159449,2,WORLD,-1000.0,-1000.0,-708.984375,228.515625,0.0,0
1713993504.619822,2,WORLD,-218.75,-229.98046875,-587.40234375,-1000.0,0.0,0
1713993504.6236992,2,WORLD,999.51171875,999.51171875,-20.01953125,-328.125,0.0,0
1713993504.627576,2,WORLD,244.62890625,244.140625,-276.3671875,999.51171875,0.0,0
1713993504.6314533,2,WORLD,-1000.0,-1000.0,-745.1171875,292.48046875,0.0,0
1713993504.6353304,2,WORLD,-461.42578125,-628.90625,-686.03515625,-1000.0,0.0,0
1713993504.6392076,2,WORLD,999.51171875,999.51171875,-323.2421875,-841.30859375,0.0,0
1713993504.6433487,2,WORLD,336.42578125,443.84765625,-369.140625,770.01953125,0.0,0
1713993504.647226,2,WORLD,-1000.0,-1000.0,-671.38671875,716.30859375,0.0,0
1713993504.6511033,2,WORLD,-963.8671875,-1000.0,-716.30859375,-831.54296875,0.0,0
1713993504.6549807,2,WORLD,586.42578125,291.015625,-500.48828125,-1000.0,0.0,0
1713993504.6588578,2,WORLD,816.40625,962.40234375,-325.68359375,-30.2734375,0.0,0
1713993504.662735,2,WORLD,-748.046875,-550.29296875,-545.8984375,999.51171875,0.0,0
1713993504.6666124,2,WORLD,-1000.0,-1000.0,-658.69140625,-198.73046875,0.0,0
1713993504.6704895,2,WORLD,-85.44921875,-183.59375,-564.94140625,-1000.0,0.0,0
1713993504.6743667,2,WORLD,999.51171875,999.51171875,-326.171875,-235.83984375,0.0,0
1713993504.678244,2,WORLD,-86.42578125,67.87109375,-451.66015625,999.51171875,0.0,0
1713993504.6821213,2,WORLD,-1000.0,-1000.0,-697.265625,222.65625,0.0,0
1713993504.6859984,2,WORLD,-224.609375,-319.82421875,-702.63671875,-1000.0,0.0,0
1713993504.6901028,2,WORLD,999.51171875,999.51171875,-347.16796875,-632.32421875,0.0,0
1713993504.6939802,2,WORLD,245.60546875,246.58203125,-364.74609375,997.0703125,0.0,0
1713993504.6978574,2,WORLD,-1000.0,-1000.0,-632.8125,297.8515625,0.0,0
1713993504.7017348,2,WORLD,-610.3515625,-799.8046875,-747.0703125,-1000.0,0.0,0
1713993504.7056122,2,WORLD,999.51171875,834.9609375,-421.875,-1000.0,0.0,0
1713993504.7094896,2,WORLD,445.3125,564.453125,-240.234375,312.01171875,0.0,0
1713993504.7133667,2,WORLD,-1000.0,-967.28515625,-535.15625,800.78125,0.0,0
1713993504.7172441,2,WORLD,-1000.0,-1000.0,-754.8828125,-768.5546875,0.0,0
1713993504.7211215,2,WORLD,283.203125,109.86328125,-581.54296875,-1000.0,0.0,0
1713993504.724999,2,WORLD,955.56640625,999.51171875,-184.5703125,-125.48828125,0.0,0
1713993504.728876,2,WORLD,-574.21875,-355.95703125,-381.34765625,999.51171875,0.0,0
1713993504.7327535,2,WORLD,-1000.0,-1000.0,-763.18359375,-5.859375,0.0,0
1713993504.737069,2,WORLD,-200.1953125,-210.9375,-662.59765625,-1000.0,0.0,0
1713993504.7409463,2,WORLD,999.51171875,999.51171875,-228.02734375,-231.4453125,0.0,0
1713993504.744824,2,WORLD,70.3125,189.94140625,-381.8359375,999.51171875,0.0,0
1713993504.7487013,2,WORLD,-1000.0,-1000.0,-726.5625,243.65234375,0.0,0
1713993504.752579,2,WORLD,-269.53125,-450.1953125,-694.3359375,-1000.0,0.0,0
1713993504.7564564,2,WORLD,999.51171875,999.51171875,-192.3828125,-503.41796875,0.0,0
1713993504.760334,2,WORLD,241.2109375,274.90234375,-199.70703125,999.51171875,0.0,0
1713993504.7642114,2,WORLD,-1000.0,-1000.0,-642.578125,579.58984375,0.0,0
1713993504.768089,2,WORLD,-766.11328125,-934.5703125,-750.48828125,-976.5625,0.0,0
1713993504.7719665,2,WORLD,883.7890625,633.7890625,-280.76171875,-1000.0,0.0,0
1713993504.775844,2,WORLD,568.359375,715.8203125,-193.359375,425.29296875,0.0,0
1713993504.7797215,2,WORLD,-970.21484375,-854.4921875,-657.2265625,999.51171875,0.0,0
1713993504.7839909,3,WORLD,-1000.0,-1000.0,-722.16796875,-316.40625,0.0,0
1713993504.7878685,3,WORLD,145.99609375,-29.296875,-539.0625,-1000.0,0.0,0
1713993504.7917461,3,WORLD,999.51171875,999.51171875,-304.19921875,-128.41796875,0.0,0
1713993504.795624,3,WORLD,-346.6796875,-163.57421875,-505.37109375,999.51171875,0.0,0
1713993504.7995017,3,WORLD,-1000.0,-1000.0,-687.5,193.84765625,0.0,0
1713993504.8033793,3,WORLD,-214.35546875,-220.21484375,-589.84375,-1000.0,0.0,0
1713993504.807257,3,WORLD,999.51171875,999.51171875,-166.50390625,-260.25390625,0.0,0
1713993504.8111346,3,WORLD,220.703125,239.2578125,-318.359375,999.51171875,0.0,0
1713993504.8150122,3,WORLD,-1000.0,-1000.0,-630.37109375,268.5546875,0.0,0
1713993504.8188899,3,WORLD,-426.7578125,-567.3828125,-620.60546875,-1000.0,0.0,0
1713993504.8227677,3,WORLD,999.51171875,999.51171875,-368.65234375,-655.76171875,0.0,0
1713993504.8266454,3,WORLD,248.53515625,360.83984375,-350.09765625,964.84375,0.0,0
1713993504.8308878,3,WORLD,-1000.0,-1000.0,-614.74609375,689.94140625,0.0,0
1713993504.8347657,3,WORLD,-908.69140625,-1000.0,-736.328125,-874.51171875,0.0,0
1713993504.8386436,3,WORLD,687.98828125,393.5546875,-486.81640625,-1000.0,0.0,0
1713993504.8425214,3,WORLD,678.22265625,862.79296875,-303.22265625,234.375,0.0,0
1713993504.8463993,3,WORLD,-909.66796875,-690.91796875,-564.94140625,999.51171875,0.0,0
1713993504.850277,3,WORLD,-1000.0,-1000.0,-704.1015625,-139.16015625,0.0,0
1713993504.8541548,3,WORLD,15.625,-149.90234375,-572.75390625,-1000.0,0.0,0
1713993504.8580327,3,WORLD,999.51171875,999.51171875,-183.10546875,-213.37890625,0.0,0
1713993504.8619106,3,WORLD,-134.765625,-6.34765625,-336.42578125,999.51171875,0.0,0
1713993504.8657882,3,WORLD,-1000.0,-1000.0,-653.3203125,233.3984375,0.0,0
1713993504.869666,3,WORLD,-223.6328125,-268.5546875,-658.203125,-1000.0,0.0,0
1713993504.873544,3,WORLD,999.51171875,999.51171875,-301.26953125,-395.01953125,0.0,0
1713993504.8777606,3,WORLD,246.09375,246.09375,-363.28125,999.51171875,0.0,0
1713993504.8816385,3,WORLD,-1000.0,-1000.0,-677.734375,303.7109375,0.0,0
1713993504.8855166,3,WORLD,-555.17578125,-707.03125,-750.9765625,-1000.0,0.0,0
1713993504.8893945,3,WORLD,999.51171875,942.87109375,-336.42578125,-889.16015625,0.0,0
1713993504.8932724,3,WORLD,357.421875,487.79296875,-247.55859375,702.1484375,0.0,0
1713993504.8971505,3,WORLD,-1000.0,-1000.0,-596.6796875,725.5859375,0.0,0
1713993504.9010284,3,WORLD,-1000.0,-1000.0,-746.09375,-833.984375,0.0,0
1713993504.9049063,3,WORLD,479.00390625,191.40625,-416.015625,-1000.0,0.0,0
1713993504.9087844,3,WORLD,871.09375,998.53515625,3.41796875,-16.11328125,0.0,0
1713993504.9126623,3,WORLD,-683.59375,-482.421875,-478.02734375,999.51171875,0.0,0
1713993504.9165404,3,WORLD,-1000.0,-1000.0,-770.5078125,-208.0078125,0.0,0
1713993504.9204183,3,WORLD,-149.4140625,-204.58984375,-610.3515625,-1000.0,0.0,0
1713993504.9246101,3,WORLD,999.51171875,999.51171875,-286.1328125,-192.87109375,0.0,0
1713993504.9284883,3,WORLD,9.765625,125.9765625,-445.3125,999.51171875,0.0,0
1713993504.9323664,3,WORLD,-1000.0,-1000.0,-707.03125,235.3515625,0.0,0
1713993504.9362445,3,WORLD,-232.421875,-378.90625,-667.48046875,-1000.0,0.0,0
1713993504.9401224,3,WORLD,999.51171875,999.51171875,-326.66015625,-718.75,0.0,0
1713993504.9440005,3,WORLD,244.62890625,247.0703125,-337.890625,916.015625,0.0,0
1713993504.9478786,3,WORLD,-1000.0,-1000.0,-631.34765625,398.92578125,0.0,0
1713993504.9517567,3,WORLD,-647.4609375,-879.39453125,-642.578125,-1000.0,0.0,0
1713993504.9556348,3,WORLD,999.51171875,725.5859375,-364.2578125,-1000.0,0.0,0
1713993504.959513,3,WORLD,468.26171875,618.65234375,-379.8828125,230.46875,0.0,0
1713993504.963391,3,WORLD,-1000.0,-936.5234375,-612.3046875,914.55078125,0.0,0
1713993504.967269,3,WORLD,-1000.0,-1000.0,-693.84765625,-616.2109375,0.0,0
1713993504.971432,3,WORLD,219.7265625,29.296875,-586.9140625,-1000.0,0.0,0
1713993504.97531,3,WORLD,999.51171875,999.51171875,-378.90625,-156.73828125,0.0,0
1713993504.9791884,3,WORLD,-446.2890625,-264.6484375,-493.1640625,999.51171875,0.0,0
1713993504.9830666,3,WORLD,-1000.0,-1000.0,-628.41796875,68.84765625,0.0,0
1713993504.9869447,3,WORLD,-207.03125,-214.84375,-619.62890625,-1000.0,0.0,0
1713993504.990823,3,WORLD,999.51171875,999.51171875,-224.609375,-189.453125,0.0,0
1713993504.9947011,3,WORLD,139.16015625,219.7265625,-293.45703125,999.51171875,0.0,0
1713993504.9985793,3,WORLD,-1000.0,-1000.0,-582.51953125,247.0703125,0.0,0
1713993505.0024576,3,WORLD,-344.7265625,-509.765625,-716.30859375,-1000.0,0.0,0
1713993505.0063357,3,WORLD,999.51171875,999.51171875,-383.30078125,-642.08984375,0.0,0
1713993505.0102139,3,WORLD,248.046875,298.828125,-330.078125,988.28125,0.0,0
1713993505.0140922,3,WORLD,-1000.0,-1000.0,-632.32421875,604.98046875,0.0,0
1713993505.01823,3,WORLD,-802.24609375,-1000.0,-755.37109375,-955.56640625,0.0,0
1713993505.0221083,3,WORLD,833.0078125,497.55859375,-456.54296875,-1000.0,0.0,0
1713993505.0259867,3,WORLD,626.953125,781.25,-318.84765625,266.11328125,0.0,0
1713993505.0298648,3,WORLD,-928.7109375,-786.1328125,-623.53515625,999.51171875,0.0,0
1713993505.0337431,3,WORLD,-1000.0,-1000.0,-734.375,-243.65234375,0.0,0
1713993505.0376215,3,WORLD,48.33984375,-106.4453125,-572.75390625,-1000.0,0.0,0
1713993505.0414999,3,WORLD,999.51171875,999.51171875,-12.6953125,-125.9765625,0.0,0
1713993505.045378,3,WORLD,-203.61328125,-76.66015625,-210.44921875,999.51171875,0.0,0
1713993505.0492563,3,WORLD,-1000.0,-1000.0,-736.328125,223.6328125,0.0,0
1713993505.0531347,3,WORLD,-218.26171875,-232.91015625,-646.484375,-1000.0,0.0,0
1713993505.057013,3,WORLD,999.51171875,999.51171875,-239.74609375,-301.7578125,0.0,0
1713993505.0608912,3,WORLD,244.62890625,245.1171875,-387.20703125,999.51171875,0.0,0
1713993505.065003,3,WORLD,-1000.0,-1000.0,-709.9609375,341.30859375,0.0,0
1713993505.0688813,3,WORLD,-459.9609375,-636.71875,-691.89453125,-1000.0,0.0,0
1713993505.0727596,3,WORLD,999.51171875,999.51171875,-337.40234375,-675.29296875,0.0,0
1713993505.076638,3,WORLD,306.15234375,423.828125,-366.69921875,922.8515625,0.0,0
1713993505.0805166,3,WORLD,-1000.0,-1000.0,-666.015625,825.1953125,0.0,0
1713993505.084395,3,WORLD,-968.75,-1000.0,-673.828125,-712.40234375,0.0,0
1713993505.0882733,3,WORLD,569.3359375,287.109375,-377.44140625,-1000.0,0.0,0
1713993505.0921516,3,WORLD,819.3359375,940.4296875,-303.22265625,179.19921875,0.0,0
1713993505.09603,3,WORLD,-748.046875,-579.58984375,-582.51953125,999.51171875,0.0,0
1713993505.0999084,3,WORLD,-1000.0,-1000.0,-702.1484375,-23.92578125,0.0,0
1713993505.1037867,3,WORLD,-85.44921875,-183.59375,-621.09375,-1000.0,0.0,0
1713993505.1076653,3,WORLD,999.51171875,999.51171875,-306.640625,-233.3984375,0.0,0
1713993505.1119566,3,WORLD,-86.42578125,60.05859375,-437.5,999.51171875,0.0,0
1713993505.1158352,3,WORLD,-1000.0,-1000.0,-673.828125,236.81640625,0.0,0
1713993505.1197135,3,WORLD,-224.609375,-315.4296875,-673.828125,-1000.0,0.0,0
1713993505.1235921,3,WORLD,999.51171875,999.51171875,-341.30859375,-351.07421875,0.0,0
1713993505.1274707,3,WORLD,245.60546875,247.0703125,-366.2109375,999.51171875,0.0,0
1713993505.1313493,3,WORLD,-1000.0,-1000.0,-603.515625,530.76171875,0.0,0
1713993505.135228,3,WORLD,-583.984375,-784.66796875,-694.82421875,-1000.0,0.0,0
1713993505.1391063,3,WORLD,999.51171875,853.02734375,-366.2109375,-818.359375,0.0,0
1713993505.1429849,3,WORLD,437.01171875,560.05859375,-278.80859375,759.765625,0.0,0
1713993505.1468635,3,WORLD,-1000.0,-969.23828125,-576.171875,999.51171875,0.0,0
1713993505.150742,3,WORLD,-1000.0,-1000.0,-729.98046875,-474.12109375,0.0,0
1713993505.1546206,3,WORLD,305.17578125,122.55859375,-557.12890625,-1000.0,0.0,0
1713993505.1588697,3,WORLD,954.1015625,999.51171875,-203.125,84.47265625,0.0,0
1713993505.1627483,3,WORLD,-572.75390625,-361.328125,-442.3828125,999.51171875,0.0,0
1713993505.1666272,3,WORLD,-1000.0,-1000.0,-735.3515625,126.46484375,0.0,0
1713993505.1705058,3,WORLD,-181.15234375,-191.89453125,-658.69140625,-1000.0,0.0,0
1713993505.1743844,3,WORLD,999.51171875,999.51171875,-232.421875,-254.8828125,0.0,0
1713993505.1782632,3,WORLD,-27.34375,97.16796875,-316.89453125,999.51171875,0.0,0
1713993505.1821418,3,WORLD,-1000.0,-1000.0,-665.52734375,237.79296875,0.0,0
1713993505.1860206,3,WORLD,-246.58203125,-438.4765625,-729.00390625,-1000.0,0.0,0
1713993505.1898992,3,WORLD,999.51171875,999.51171875,-194.82421875,-413.57421875,0.0,0
1713993505.193778,3,WORLD,238.76953125,270.01953125,-103.02734375,999.51171875,0.0,0
1713993505.1976566,3,WORLD,-1000.0,-1000.0,-663.57421875,622.0703125,0.0,0
1713993505.2015352,3,WORLD,-752.44140625,-932.6171875,-758.30078125,-958.0078125,0.0,0
1713993505.205757,3,WORLD,899.4140625,648.4375,-372.55859375,-942.87109375,0.0,0
1713993505.2096357,3,WORLD,565.4296875,688.96484375,-297.36328125,553.22265625,0.0,0
1713993505.2135146,3,WORLD,-968.75,-892.578125,-607.91015625,999.51171875,0.0,0
1713993505.2173934,3,WORLD,-1000.0,-1000.0,-695.80078125,-208.0078125,0.0,0
1713993505.2212722,3,WORLD,149.90234375,-24.4140625,-538.57421875,-1000.0,0.0,0
1713993505.225151,3,WORLD,999.51171875,999.51171875,-168.45703125,-22.94921875,0.0,0
1713993505.22903,3,WORLD,-364.74609375,-171.875,-389.6484375,999.51171875,0.0,0
1713993505.2329087,3,WORLD,-1000.0,-1000.0,-702.1484375,208.0078125,0.0,0
1713993505.2367876,3,WORLD,-212.890625,-219.23828125,-546.38671875,-1000.0,0.0,0
1713993505.2406664,3,WORLD,999.51171875,999.51171875,-200.68359375,-269.53125,0.0,0
1713993505.2445452,3,WORLD,213.37890625,237.79296875,-433.59375,999.51171875,0.0,0
1713993505.248424,3,WORLD,-1000.0,-1000.0,-671.38671875,338.8671875,0.0,0
1713993505.2526212,3,WORLD,-412.59765625,-562.5,-683.10546875,-1000.0,0.0,0
1713993505.2565002,3,WORLD,999.51171875,999.51171875,-382.32421875,-535.15625,0.0,0
1713993505.260379,3,WORLD,261.23046875,370.1171875,-378.90625,999.51171875,0.0,0
1713993505.2642581,3,WORLD,-1000.0,-1000.0,-636.23046875,812.98828125,0.0,0
1713993505.268137,3,WORLD,-804.19921875,-956.54296875,-658.203125,-729.00390625,0.0,0
1713993505.272016,3,WORLD,869.140625,583.49609375,-371.09375,-1000.0,0.0,0
1713993505.2758949,3,WORLD,660.15625,837.890625,-237.3046875,353.02734375,0.0,0
1713993505.279774,3,WORLD,-910.64453125,-701.171875,-484.86328125,999.51171875,0.0,0
1713993505.2836528,3,WORLD,-1000.0,-1000.0,-623.046875,-39.55078125,0.0,0
1713993505.2875319,3,WORLD,19.04296875,-145.99609375,-614.2578125,-1000.0,0.0,0
1713993505.2914107,3,WORLD,999.51171875,999.51171875,-349.12109375,-185.05859375,0.0,0
1713993505.2952898,3,WORLD,-159.1796875,-21.97265625,-476.07421875,999.51171875,0.0,0
1713993505.2994654,3,WORLD,-1000.0,-1000.0,-709.9609375,227.5390625,0.0,0
1713993505.3033445,3,WORLD,-223.14453125,-265.625,-697.265625,-1000.0,0.0,0
1713993505.3072236,3,WORLD,999.51171875,999.51171875,-311.03515625,-304.6875,0.0,0
1713993505.3111026,3,WORLD,227.5390625,236.81640625,-360.83984375,999.51171875,0.0,0
1713993505.3149817,3,WORLD,-1000.0,-1000.0,-650.87890625,404.296875,0.0,0
1713993505.3188608,3,WORLD,-465.8203125,-656.25,-676.7578125,-1000.0,0.0,0
1713993505.3227398,3,WORLD,999.51171875,942.87109375,-321.77734375,-701.171875,0.0,0
1713993505.326619,3,WORLD,357.421875,481.93359375,-108.88671875,905.76171875,0.0,0
1713993505.330498,3,WORLD,-1000.0,-1000.0,-475.09765625,861.81640625,0.0,0
1713993505.334377,3,WORLD,-1000.0,-1000.0,-773.4375,-673.828125,0.0,0
1713993505.3382561,3,WORLD,482.91015625,207.03125,-498.046875,-1000.0,0.0,0
1713993505.3421352,3,WORLD,859.375,991.69921875,-250.9765625,185.05859375,0.0,0
1713993505.3462763,3,WORLD,-703.61328125,-496.09375,-557.6171875,999.51171875,0.0,0
1713993505.3501554,3,WORLD,-1000.0,-1000.0,-766.11328125,21.484375,0.0,0
1713993505.3540347,3,WORLD,-117.1875,-204.1015625,-601.5625,-1000.0,0.0,0
1713993505.3579137,3,WORLD,999.51171875,999.51171875,-238.76953125,-224.12109375,0.0,0
1713993505.361793,3,WORLD,-0.48828125,121.09375,-423.33984375,999.51171875,0.0,0
1713993505.365672,3,WORLD,-1000.0,-1000.0,-681.640625,151.3671875,0.0,0
1713993505.3695512,3,WORLD,-232.421875,-365.72265625,-606.93359375,-1000.0,0.0,0
1713993505.3734305,3,WORLD,999.51171875,999.51171875,-175.78125,-406.73828125,0.0,0
1713993505.3773096,3,WORLD,244.62890625,247.0703125,-349.609375,999.51171875,0.0,0
1713993505.3811886,3,WORLD,-1000.0,-1000.0,-700.1953125,516.6015625,0.0,0
1713993505.385068,3,WORLD,-647.4609375,-858.3984375,-678.22265625,-1000.0,0.0,0
1713993505.388947,3,WORLD,999.51171875,755.37109375,-306.15234375,-913.57421875,0.0,0
1713993505.393264,3,WORLD,465.33203125,612.3046875,-328.125,611.81640625,0.0,0
1713993505.3971434,3,WORLD,-1000.0,-941.40625,-646.484375,999.51171875,0.0,0
1713993505.4010227,3,WORLD,-1000.0,-1000.0,-699.70703125,-401.85546875,0.0,0
1713993505.404902,3,WORLD,254.8828125,45.8984375,-564.94140625,-1000.0,0.0,0
1713993505.4087813,3,WORLD,999.51171875,999.51171875,-328.61328125,-17.08984375,0.0,0
1713993505.4126606,3,WORLD,-447.75390625,-268.5546875,-496.58203125,999.51171875,0.0,0
1713993505.41654,3,WORLD,-1000.0,-1000.0,-640.625,183.59375,0.0,0
1713993505.4204192,3,WORLD,-207.03125,-215.33203125,-582.51953125,-1000.0,0.0,0
1713993505.4242985,3,WORLD,999.51171875,999.51171875,-301.26953125,-260.7421875,0.0,0
1713993505.4281778,3,WORLD,139.6484375,220.703125,-403.80859375,999.51171875,0.0,0
1713993505.4320571,3,WORLD,-1000.0,-1000.0,-650.390625,246.58203125,0.0,0
1713993505.4359365,3,WORLD,-344.7265625,-491.69921875,-680.17578125,-1000.0,0.0,0
1713993505.4402304,3,WORLD,999.51171875,999.51171875,-387.6953125,-496.58203125,0.0,0
1713993505.44411,3,WORLD,249.0234375,295.8984375,-348.14453125,999.51171875,0.0,0
1713993505.4479895,3,WORLD,-1000.0,-1000.0,-598.14453125,646.484375,0.0,0
1713993505.4518688,3,WORLD,-785.64453125,-996.58203125,-738.28125,-922.36328125,0.0,0
1713993505.4557483,3,WORLD,856.4453125,528.3203125,-465.33203125,-1000.0,0.0,0
1713993505.4596279,3,WORLD,612.79296875,764.16015625,-187.01171875,425.78125,0.0,0
1713993505.4635072,3,WORLD,-939.94140625,-804.19921875,-464.35546875,999.51171875,0.0,0
1713993505.4673867,3,WORLD,-1000.0,-1000.0,-739.2578125,-208.0078125,0.0,0
1713993505.4712663,3,WORLD,77.1484375,-92.28515625,-625.9765625,-1000.0,0.0,0
1713993505.4751458,3,WORLD,999.51171875,999.51171875,-180.6640625,-79.1015625,0.0,0
1713993505.4790251,3,WORLD,-212.40234375,-101.07421875,-302.734375,999.51171875,0.0,0
1713993505.4829047,3,WORLD,-1000.0,-1000.0,-730.46875,214.84375,0.0,0
1713993505.4871786,3,WORLD,-222.65625,-231.4453125,-684.08203125,-1000.0,0.0,0
1713993505.491058,3,WORLD,999.51171875,999.51171875,-247.55859375,-269.04296875,0.0,0
1713993505.4949377,3,WORLD,208.0078125,211.42578125,-358.88671875,999.51171875,0.0,0
1713993505.4988174,3,WORLD,-1000.0,-1000.0,-685.05859375,345.21484375,0.0,0
1713993505.502697,3,WORLD,-276.85546875,-462.890625,-687.98828125,-1000.0,0.0,0
1713993505.5065765,3,WORLD,999.51171875,999.51171875,-270.5078125,-577.63671875,0.0,0
1713993505.5104563,3,WORLD,283.203125,406.25,-219.7265625,999.51171875,0.0,0
1713993505.5143359,3,WORLD,-1000.0,-1000.0,-601.5625,827.1484375,0.0,0
1713993505.5182154,3,WORLD,-935.546875,-1000.0,-731.4453125,-698.2421875,0.0,0
1713993505.5220952,3,WORLD,620.1171875,304.19921875,-318.84765625,-1000.0,0.0,0
1713993505.5259748,3,WORLD,792.48046875,926.26953125,-153.80859375,250.9765625,0.0,0
1713993505.5298543,3,WORLD,-774.90234375,-601.5625,-622.55859375,999.51171875,0.0,0
1713993505.5341086,3,WORLD,-1000.0,-1000.0,-712.40234375,-41.9921875,0.0,0
1713993505.5379882,3,WORLD,-73.73046875,-178.7109375,-564.453125,-1000.0,0.0,0
1713993505.541868,3,WORLD,999.51171875,999.51171875,-299.8046875,-199.21875,0.0,0
1713993505.5457478,3,WORLD,-88.37890625,47.8515625,-484.375,999.51171875,0.0,0
1713993505.5496275,3,WORLD,-1000.0,-1000.0,-677.734375,230.46875,0.0,0
1713993505.5535073,3,WORLD,-224.609375,-308.59375,-592.7734375,-1000.0,0.0,0
1713993505.557387,3,WORLD,999.51171875,999.51171875,-254.8828125,-315.91796875,0.0,0
1713993505.561267,3,WORLD,245.60546875,247.0703125,-358.88671875,999.51171875,0.0,0
1713993505.5651467,3,WORLD,-1000.0,-1000.0,-583.0078125,511.71875,0.0,0
1713993505.5690265,3,WORLD,-567.3828125,-775.390625,-611.328125,-1000.0,0.0,0
1713993505.5729063,3,WORLD,999.51171875,863.76953125,-403.80859375,-797.36328125,0.0,0
1713993505.576786,3,WORLD,418.45703125,544.921875,-357.91015625,795.41015625,0.0,0
1713993505.5809906,3,WORLD,-1000.0,-977.05078125,-608.3984375,969.7265625,0.0,0
1713993505.5848706,3,WORLD,-1000.0,-1000.0,-727.5390625,-513.671875,0.0,0
1713993505.5887504,3,WORLD,323.73046875,131.34765625,-557.12890625,-1000.0,0.0,0
1713993505.5926304,3,WORLD,953.61328125,999.51171875,-321.77734375,135.7421875,0.0,0
1713993505.5965102,3,WORLD,-574.70703125,-386.23046875,-508.30078125,999.51171875,0.0,0
1713993505.6003902,3,WORLD,-1000.0,-1000.0,-689.453125,-169.43359375,0.0,0
1713993505.60427,3,WORLD,-198.2421875,-210.9375,-601.07421875,-1000.0,0.0,0
1713993505.6081498,3,WORLD,999.51171875,999.51171875,-219.7265625,-246.58203125,0.0,0
1713993505.6120298,3,WORLD,12.20703125,152.83203125,-309.08203125,999.51171875,0.0,0
1713993505.6159096,3,WORLD,-1000.0,-1000.0,-637.6953125,239.74609375,0.0,0
1713993505.6197896,3,WORLD,-144.53125,-343.26171875,-690.4296875,-1000.0,0.0,0
1713993505.6236694,3,WORLD,999.51171875,999.51171875,-284.66796875,-454.1015625,0.0,0
1713993505.627862,3,WORLD,238.76953125,262.20703125,-319.82421875,999.51171875,0.0,0
1713993505.631742,3,WORLD,-1000.0,-1000.0,-667.48046875,582.51953125,0.0,0
1713993505.635622,3,WORLD,-735.83984375,-923.828125,-764.16015625,-1000.0,0.0,0
1713993505.639502,3,WORLD,917.96875,652.34375,-369.140625,-909.66796875,0.0,0
1713993505.643382,3,WORLD,562.01171875,693.359375,-221.19140625,609.86328125,0.0,0
1713993505.647262,3,WORLD,-967.28515625,-875.48828125,-583.984375,999.51171875,0.0,0
1713993505.6511421,3,WORLD,-1000.0,-1000.0,-737.79296875,-314.94140625,0.0,0
1713993505.6550221,3,WORLD,155.2734375,-16.6015625,-475.09765625,-1000.0,0.0,0
1713993505.6589022,3,WORLD,999.51171875,999.51171875,-8.7890625,-7.8125,0.0,0
1713993505.6627822,3,WORLD,-393.5546875,-190.4296875,-429.19921875,999.51171875,0.0,0
1713993505.6666622,3,WORLD,-1000.0,-1000.0,-762.6953125,182.12890625,0.0,0
1713993505.6705422,3,WORLD,-209.47265625,-218.26171875,-625.0,-1000.0,0.0,0
1713993505.6747005,3,WORLD,999.51171875,999.51171875,-324.21875,-262.20703125,0.0,0
1713993505.6785805,3,WORLD,177.24609375,233.88671875,-430.17578125,999.51171875,0.0,0
1713993505.6824608,3,WORLD,-1000.0,-1000.0,-660.15625,271.97265625,0.0,0
1713993505.6863408,3,WORLD,-397.94921875,-558.59375,-692.87109375,-1000.0,0.0,0
1713993505.690221,3,WORLD,999.51171875,999.51171875,-375.0,-567.87109375,0.0,0
1713993505.694101,3,WORLD,245.60546875,341.30859375,-321.2890625,999.51171875,0.0,0
1713993505.697981,3,WORLD,-1000.0,-1000.0,-596.6796875,704.1015625,0.0,0
1713993505.7018614,3,WORLD,-909.66796875,-1000.0,-652.83203125,-840.33203125,0.0,0
1713993505.7057414,3,WORLD,687.98828125,413.57421875,-444.82421875,-1000.0,0.0,0
1713993505.7096214,3,WORLD,678.22265625,842.28515625,-388.671875,237.79296875,0.0,0
1713993505.7135017,3,WORLD,-908.203125,-715.8203125,-597.16796875,999.51171875,0.0,0
1713993505.7173817,3,WORLD,-1000.0,-1000.0,-714.84375,-111.328125,0.0,0
1713993505.7217033,3,WORLD,23.4375,-142.08984375,-621.09375,-1000.0,0.0,0
1713993505.7255836,3,WORLD,999.51171875,999.51171875,-359.86328125,-180.17578125,0.0,0
1713993505.7294638,3,WORLD,-189.94140625,-39.0625,-458.0078125,999.51171875,0.0,0
1713993505.733344,3,WORLD,-1000.0,-1000.0,-628.90625,229.4921875,0.0,0
1713993505.7372243,3,WORLD,-218.75,-261.71875,-632.8125,-1000.0,0.0,0
1713993505.7411046,3,WORLD,999.51171875,999.51171875,-246.09375,-310.05859375,0.0,0
1713993505.7449849,3,WORLD,246.09375,247.0703125,-252.44140625,999.51171875,0.0,0
1713993505.7488651,3,WORLD,-1000.0,-1000.0,-565.91796875,362.3046875,0.0,0
1713993505.7527454,3,WORLD,-543.45703125,-691.40625,-728.515625,-1000.0,0.0,0
1713993505.7566257,3,WORLD,999.51171875,959.9609375,-425.78125,-757.8125,0.0,0
1713993505.760506,3,WORLD,355.46875,469.7265625,-361.328125,842.7734375,0.0,0
1713993505.7643862,3,WORLD,-1000.0,-1000.0,-640.13671875,847.16796875,0.0,0
1713993505.7684982,3,WORLD,-1000.0,-1000.0,-729.98046875,-694.82421875,0.0,0
1713993505.7723787,3,WORLD,492.1875,215.33203125,-526.85546875,-1000.0,0.0,0
1713993505.776259,3,WORLD,826.171875,977.05078125,-259.27734375,120.1171875,0.0,0
1713993505.7801392,3,WORLD,-748.046875,-519.53125,-498.046875,999.51171875,0.0,0
1713993505.7840197,3,WORLD,-1000.0,-1000.0,-734.375,-11.71875,0.0,0
1713993505.7879,3,WORLD,-105.46875,-198.2421875,-608.3984375,-1000.0,0.0,0
1713993505.7917802,3,WORLD,999.51171875,999.51171875,-119.62890625,-230.46875,0.0,0
1713993505.7956607,3,WORLD,-28.80859375,102.5390625,-273.92578125,999.51171875,0.0,0
1713993505.799541,3,WORLD,-1000.0,-1000.0,-677.734375,237.3046875,0.0,0
1713993505.8034215,3,WORLD,-229.98046875,-360.83984375,-692.3828125,-1000.0,0.0,0
1713993505.8073018,3,WORLD,999.51171875,999.51171875,-123.53515625,-365.234375,0.0,0
1713993505.811182,3,WORLD,245.1171875,247.55859375,-180.6640625,999.51171875,0.0,0
1713993505.8152618,3,WORLD,-1000.0,-1000.0,-708.49609375,475.09765625,0.0,0
1713993505.819142,3,WORLD,-647.4609375,-853.02734375,-692.87109375,-1000.0,0.0,0
1713993505.8230226,3,WORLD,999.51171875,763.18359375,-394.04296875,-935.546875,0.0,0
1713993505.826903,3,WORLD,458.49609375,601.07421875,-396.484375,588.8671875,0.0,0
1713993505.8307834,3,WORLD,-1000.0,-946.2890625,-630.37109375,999.51171875,0.0,0
1713993505.8346639,3,WORLD,-1000.0,-1000.0,-642.08984375,-460.9375,0.0,0
1713993505.8385444,3,WORLD,270.99609375,49.31640625,-472.16796875,-1000.0,0.0,0
1713993505.8424246,3,WORLD,997.0703125,999.51171875,-340.8203125,-31.25,0.0,0
1713993505.8463051,3,WORLD,-510.7421875,-297.8515625,-536.1328125,999.51171875,0.0,0
1713993505.8501856,3,WORLD,-1000.0,-1000.0,-695.3125,142.08984375,0.0,0
1713993505.8540661,3,WORLD,-205.56640625,-212.890625,-604.98046875,-1000.0,0.0,0
1713993505.8579464,3,WORLD,999.51171875,999.51171875,-270.01953125,-254.39453125,0.0,0
1713993505.8622115,3,WORLD,125.9765625,208.984375,-433.10546875,999.51171875,0.0,0
1713993505.866092,3,WORLD,-1000.0,-1000.0,-654.296875,254.39453125,0.0,0
1713993505.8699725,3,WORLD,-343.26171875,-497.55859375,-676.26953125,-1000.0,0.0,0
1713993505.8738532,3,WORLD,999.51171875,999.51171875,-398.4375,-574.21875,0.0,0
1713993505.8777337,3,WORLD,249.51171875,289.0625,-385.25390625,999.51171875,0.0,0
1713993505.8816142,3,WORLD,-1000.0,-1000.0,-594.7265625,601.07421875,0.0,0
1713993505.8854947,3,WORLD,-785.64453125,-1000.0,-687.01171875,-945.3125,0.0,0
1713993505.8893754,3,WORLD,859.86328125,521.484375,-427.734375,-1000.0,0.0,0
1713993505.893256,3,WORLD,582.51953125,745.1171875,-321.77734375,285.64453125,0.0,0
1713993505.8971364,3,WORLD,-957.03125,-826.171875,-579.1015625,999.51171875,0.0,0
1713993505.9010172,3,WORLD,-1000.0,-1000.0,-721.6796875,-293.45703125,0.0,0
1713993505.9048977,3,WORLD,71.2890625,-95.703125,-619.140625,-1000.0,0.0,0
1713993505.9091172,3,WORLD,999.51171875,999.51171875,-279.296875,-158.69140625,0.0,0
1713993505.912998,3,WORLD,-247.0703125,-113.28125,-431.640625,999.51171875,0.0,0
1713993505.9168787,3,WORLD,-1000.0,-1000.0,-705.078125,215.8203125,0.0,0
1713993505.9207594,3,WORLD,-180.6640625,-191.89453125,-665.52734375,-1000.0,0.0,0
1713993505.92464,3,WORLD,999.51171875,999.51171875,-291.50390625,-301.26953125,0.0,0
1713993505.9285207,3,WORLD,63.4765625,63.96484375,-323.2421875,999.51171875,0.0,0
1713993505.9324014,3,WORLD,-1000.0,-1000.0,-616.69921875,286.1328125,0.0,0
1713993505.9362822,3,WORLD,-454.1015625,-630.37109375,-748.53515625,-1000.0,0.0,0
1713993505.940163,3,WORLD,999.51171875,999.51171875,-268.06640625,-629.39453125,0.0,0
1713993505.9440434,3,WORLD,247.0703125,391.11328125,-110.83984375,978.515625,0.0,0
1713993505.9479241,3,WORLD,-1000.0,-1000.0,-631.8359375,732.91015625,0.0,0
1713993505.9518049,3,WORLD,-950.1953125,-1000.0,-758.30078125,-793.9453125,0.0,0
1713993505.9561882,3,WORLD,593.26171875,298.828125,-424.31640625,-1000.0,0.0,0
1713993505.960069,3,WORLD,771.97265625,909.66796875,-303.7109375,101.07421875,0.0,0
1713993505.96395,3,WORLD,-799.31640625,-623.53515625,-605.95703125,999.51171875,0.0,0
1713993505.9678307,3,WORLD,-1000.0,-1000.0,-697.265625,-103.515625,0.0,0
1713993505.9717116,3,WORLD,-87.890625,-180.6640625,-575.68359375,-1000.0,0.0,0
1713993505.9755924,3,WORLD,999.51171875,999.51171875,-212.40234375,-141.6015625,0.0,0
1713993505.9794734,3,WORLD,-86.42578125,35.64453125,-375.0,999.51171875,0.0,0
1713993505.9833543,3,WORLD,-1000.0,-1000.0,-678.7109375,241.69921875,0.0,0
1713993505.987235,3,WORLD,-224.609375,-310.05859375,-591.30859375,-1000.0,0.0,0
1713993505.991116,3,WORLD,999.51171875,999.51171875,-276.85546875,-409.1796875,0.0,0
1713993505.9949968,3,WORLD,245.60546875,248.046875,-425.29296875,999.51171875,0.0,0
1713993505.9988778,3,WORLD,-1000.0,-1000.0,-646.97265625,436.03515625,0.0,0
1713993506.0030472,3,WORLD,-564.453125,-773.92578125,-691.40625,-1000.0,0.0,0
1713993506.0069282,3,WORLD,999.51171875,866.2109375,-412.109375,-806.640625,0.0,0
1713993506.0108092,3,WORLD,402.34375,534.66796875,-389.6484375,736.328125,0.0,0
1713993506.0146902,3,WORLD,-1000.0,-982.91015625,-595.21484375,999.51171875,0.0,0
1713993506.0185711,3,WORLD,-1000.0,-1000.0,-640.625,-466.30859375,0.0,0
1713993506.022452,3,WORLD,344.23828125,136.71875,-486.328125,-1000.0,0.0,0
1713993506.026333,3,WORLD,952.1484375,999.51171875,-230.46875,90.8203125,0.0,0
1713993506.030214,3,WORLD,-575.1953125,-398.92578125,-425.29296875,999.51171875,0.0,0
1713993506.034095,3,WORLD,-1000.0,-1000.0,-661.1328125,84.47265625,0.0,0
1713993506.037976,3,WORLD,-196.2890625,-208.984375,-645.99609375,-1000.0,0.0,0
1713993506.041857,3,WORLD,999.51171875,999.51171875,-293.45703125,-249.0234375,0.0,0
1713993506.045738,3,WORLD,30.76171875,170.41015625,-340.8203125,999.51171875,0.0,0
1713993506.0498977,3,WORLD,-1000.0,-1000.0,-585.9375,239.2578125,0.0,0
1713993506.0537786,3,WORLD,-232.421875,-419.921875,-705.078125,-1000.0,0.0,0
1713993506.0576596,3,WORLD,999.51171875,999.51171875,-343.26171875,-415.0390625,0.0,0
1713993506.0615408,3,WORLD,240.72265625,257.8125,-330.56640625,999.51171875,0.0,0
1713993506.0654218,3,WORLD,-1000.0,-1000.0,-640.13671875,593.75,0.0,0
1713993506.069303,3,WORLD,-706.54296875,-916.50390625,-708.984375,-1000.0,0.0,0
1713993506.073184,3,WORLD,949.70703125,670.8984375,-369.140625,-869.140625,0.0,0
1713993506.0770652,3,WORLD,553.7109375,668.45703125,-121.58203125,659.1796875,0.0,0
1713993506.0809462,3,WORLD,-969.23828125,-907.2265625,-470.21484375,999.51171875,0.0,0
1713993506.0848272,3,WORLD,-1000.0,-1000.0,-750.48828125,-264.6484375,0.0,0
1713993506.0887084,3,WORLD,166.9921875,0.0,-560.05859375,-1000.0,0.0,0
1713993506.0925894,3,WORLD,999.51171875,999.51171875,-261.71875,41.9921875,0.0,0
1713993506.096734,3,WORLD,-394.53125,-195.3125,-500.48828125,999.51171875,0.0,0
1713993506.1006153,3,WORLD,-1000.0,-1000.0,-735.3515625,193.84765625,0.0,0
1713993506.1044965,3,WORLD,-209.47265625,-218.26171875,-611.81640625,-1000.0,0.0,0
1713993506.1083775,3,WORLD,999.51171875,999.51171875,-256.34765625,-250.48828125,0.0,0
1713993506.1122587,3,WORLD,175.78125,232.91015625,-420.41015625,999.51171875,0.0,0
1713993506.11614,3,WORLD,-1000.0,-1000.0,-657.2265625,250.9765625,0.0,0
1713993506.120021,3,WORLD,-375.0,-552.734375,-616.69921875,-1000.0,0.0,0
1713993506.1239023,3,WORLD,999.51171875,999.51171875,-182.6171875,-517.08984375,0.0,0
1713993506.1277833,3,WORLD,243.1640625,341.30859375,-297.8515625,999.51171875,0.0,0
1713993506.1316645,3,WORLD,-1000.0,-1000.0,-668.9453125,763.671875,0.0,0
1713993506.1355457,3,WORLD,-892.578125,-1000.0,-723.6328125,-806.15234375,0.0,0
1713993506.139427,3,WORLD,710.44921875,432.6171875,-416.015625,-1000.0,0.0,0
1713993506.14354,3,WORLD,674.8046875,838.8671875,-275.87890625,446.2890625,0.0,0
1713993506.1474211,3,WORLD,-907.71484375,-721.19140625,-605.46875,999.51171875,0.0,0
1713993506.1513023,3,WORLD,-1000.0,-1000.0,-705.56640625,-89.84375,0.0,0
1713993506.1551836,3,WORLD,24.4140625,-135.25390625,-615.72265625,-1000.0,0.0,0
1713993506.1590648,3,WORLD,999.51171875,999.51171875,-312.5,-149.4140625,0.0,0
1713993506.162946,3,WORLD,-194.3359375,-43.9453125,-437.5,999.51171875,0.0,0
1713993506.1668274,3,WORLD,-1000.0,-1000.0,-620.60546875,222.16796875,0.0,0
1713993506.1707087,3,WORLD,-218.26171875,-256.8359375,-585.44921875,-1000.0,0.0,0
1713993506.1745899,3,WORLD,999.51171875,999.51171875,-343.75,-273.4375,0.0,0
1713993506.178471,3,WORLD,246.09375,246.58203125,-407.71484375,999.51171875,0.0,0
1713993506.1823523,3,WORLD,-1000.0,-1000.0,-659.66796875,426.26953125,0.0,0
1713993506.1862335,3,WORLD,-536.1328125,-686.5234375,-720.21484375,-1000.0,0.0,0
1713993506.1903152,3,WORLD,999.51171875,964.35546875,-403.3203125,-649.4140625,0.0,0
1713993506.1941965,3,WORLD,354.00390625,462.40234375,-329.1015625,943.359375,0.0,0
1713993506.198078,3,WORLD,-1000.0,-1000.0,-573.2421875,893.06640625,0.0,0
1713993506.2019591,3,WORLD,-1000.0,-1000.0,-722.16796875,-615.234375,0.0,0
1713993506.2058406,3,WORLD,491.69921875,225.5859375,-540.0390625,-1000.0,0.0,0
1713993506.2097218,3,WORLD,827.1484375,970.703125,-182.12890625,208.0078125,0.0,0
1713993506.2136033,3,WORLD,-749.0234375,-529.78515625,-388.18359375,999.51171875,0.0,0
1713993506.2174845,3,WORLD,-1000.0,-1000.0,-735.3515625,23.92578125,0.0,0
1713993506.221366,3,WORLD,-91.30859375,-197.75390625,-661.1328125,-1000.0,0.0,0
1713993506.2252471,3,WORLD,999.51171875,999.51171875,-250.48828125,-243.65234375,0.0,0
1713993506.2291284,3,WORLD,-41.015625,95.21484375,-384.765625,999.51171875,0.0,0
1713993506.2330098,3,WORLD,-1000.0,-1000.0,-716.796875,236.81640625,0.0,0
1713993506.237267,3,WORLD,-229.00390625,-357.421875,-694.3359375,-1000.0,0.0,0
1713993506.2411485,3,WORLD,999.51171875,999.51171875,-287.109375,-353.515625,0.0,0
1713993506.24503,3,WORLD,244.62890625,247.55859375,-330.56640625,999.51171875,0.0,0
1713993506.2489114,3,WORLD,-1000.0,-1000.0,-667.96875,512.6953125,0.0,0
1713993506.2527928,3,WORLD,-647.4609375,-848.6328125,-737.79296875,-1000.0,0.0,0
1713993506.2566743,3,WORLD,999.51171875,769.53125,-307.6171875,-851.5625,0.0,0
1713993506.2605557,3,WORLD,458.49609375,593.26171875,-223.14453125,706.54296875,0.0,0
1713993506.2644372,3,WORLD,-1000.0,-951.171875,-596.19140625,999.51171875,0.0,0
1713993506.2683187,3,WORLD,-1000.0,-1000.0,-689.453125,-431.15234375,0.0,0
1713993506.2722,3,WORLD,275.390625,57.6171875,-511.23046875,-1000.0,0.0,0
1713993506.2760816,3,WORLD,981.93359375,999.51171875,-268.06640625,4.8828125,0.0,0
1713993506.279963,3,WORLD,-534.1796875,-312.5,-521.97265625,999.51171875,0.0,0
1713993506.284174,3,WORLD,-1000.0,-1000.0,-700.1953125,138.671875,0.0,0
1713993506.2880557,3,WORLD,-204.1015625,-211.9140625,-580.078125,-1000.0,0.0,0
1713993506.291937,3,WORLD,999.51171875,999.51171875,-325.1953125,-254.39453125,0.0,0
1713993506.2958188,3,WORLD,112.79296875,204.1015625,-473.14453125,999.51171875,0.0,0
1713993506.2997003,3,WORLD,-1000.0,-1000.0,-646.97265625,241.2109375,0.0,0
1713993506.303582,3,WORLD,-341.30859375,-485.3515625,-615.234375,-1000.0,0.0,0
1713993506.3074634,3,WORLD,999.51171875,999.51171875,-323.73046875,-531.73828125,0.0,0
1713993506.311345,3,WORLD,250.0,286.62109375,-361.328125,999.51171875,0.0,0
1713993506.3152266,3,WORLD,-1000.0,-1000.0,-558.59375,637.20703125,0.0,0
1713993506.319108,3,WORLD,-785.64453125,-988.76953125,-614.2578125,-927.734375,0.0,0
1713993506.3229897,3,WORLD,861.328125,546.38671875,-457.03125,-1000.0,0.0,0
1713993506.3268712,3,WORLD,570.3125,735.3515625,-343.26171875,394.04296875,0.0,0
1713993506.331065,3,WORLD,-967.7734375,-834.47265625,-586.42578125,999.51171875,0.0,0
1713993506.3349466,3,WORLD,-1000.0,-1000.0,-712.40234375,-277.34375,0.0,0
1713993506.3388283,3,WORLD,94.7265625,-87.40234375,-606.4453125,-1000.0,0.0,0
1713993506.34271,3,WORLD,999.51171875,999.51171875,-319.82421875,-149.90234375,0.0,0
1713993506.3465917,3,WORLD,-270.99609375,-126.953125,-463.8671875,999.51171875,0.0,0
1713993506.3504734,3,WORLD,-1000.0,-1000.0,-666.9921875,214.84375,0.0,0
1713993506.354355,3,WORLD,-219.23828125,-225.5859375,-615.72265625,-1000.0,0.0,0
1713993506.3582366,3,WORLD,999.51171875,999.51171875,-229.00390625,-277.34375,0.0,0
1713993506.3621182,3,WORLD,226.5625,225.09765625,-265.13671875,999.51171875,0.0,0
1713993506.366,3,WORLD,-1000.0,-1000.0,-625.0,287.109375,0.0,0
1713993506.3698816,3,WORLD,-367.67578125,-543.9453125,-721.6796875,-1000.0,0.0,0
1713993506.3737633,3,WORLD,999.51171875,999.51171875,-302.24609375,-646.484375,0.0,0
1713993506.3779414,3,WORLD,250.9765625,384.765625,-297.36328125,964.35546875,0.0,0
1713993506.381823,3,WORLD,-1000.0,-1000.0,-650.390625,736.81640625,0.0,0
1713993506.385705,3,WORLD,-920.41015625,-1000.0,-747.55859375,-819.3359375,0.0,0
1713993506.3895867,3,WORLD,647.4609375,316.40625,-458.0078125,-1000.0,0.0,0
1713993506.3934684,3,WORLD,745.1171875,896.97265625,-262.6953125,206.0546875,0.0,0
1713993506.3973503,3,WORLD,-825.68359375,-641.6015625,-533.203125,999.51171875,0.0,0
1713993506.401232,3,WORLD,-1000.0,-1000.0,-725.5859375,-83.984375,0.0,0
1713993506.4051137,3,WORLD,-69.3359375,-175.29296875,-574.21875,-1000.0,0.0,0
1713993506.4089956,3,WORLD,999.51171875,999.51171875,-54.19921875,-199.70703125,0.0,0
1713993506.4128773,3,WORLD,-93.75,25.390625,-375.48828125,999.51171875,0.0,0
1713993506.416759,3,WORLD,-1000.0,-1000.0,-733.88671875,234.375,0.0,0
1713993506.420641,3,WORLD,-224.12109375,-300.78125,-644.04296875,-1000.0,0.0,0
1713993506.4247909,3,WORLD,999.51171875,999.51171875,-336.9140625,-358.88671875,0.0,0
1713993506.4286726,3,WORLD,245.60546875,247.0703125,-404.296875,999.51171875,0.0,0
1713993506.4325545,3,WORLD,-1000.0,-1000.0,-631.34765625,460.44921875,0.0,0
1713993506.4364364,3,WORLD,-556.640625,-767.578125,-693.84765625,-1000.0,0.0,0
1713993506.4403183,3,WORLD,999.51171875,874.0234375,-391.6015625,-761.71875,0.0,0
1713993506.4442,3,WORLD,382.32421875,522.4609375,-309.08203125,843.75,0.0,0
1713993506.448082,3,WORLD,-1000.0,-988.76953125,-594.23828125,937.98828125,0.0,0
1713993506.451964,3,WORLD,-1000.0,-1000.0,-643.06640625,-556.640625,0.0,0
1713993506.4558458,3,WORLD,356.93359375,142.578125,-475.5859375,-1000.0,0.0,0
1713993506.4597275,3,WORLD,932.6171875,999.51171875,-363.28125,67.3828125,0.0,0
1713993506.4636095,3,WORLD,-601.5625,-419.921875,-551.26953125,999.51171875,0.0,0
1713993506.4674914,3,WORLD,-1000.0,-1000.0,-681.640625,71.2890625,0.0,0
1713993506.4716089,3,WORLD,-198.73046875,-209.47265625,-630.859375,-1000.0,0.0,0
1713993506.4754908,3,WORLD,999.51171875,999.51171875,-341.30859375,-246.58203125,0.0,0
1713993506.4793727,3,WORLD,12.20703125,140.13671875,-431.640625,999.51171875,0.0,0
1713993506.4832547,3,WORLD,-1000.0,-1000.0,-631.34765625,240.234375,0.0,0
1713993506.4871366,3,WORLD,-144.53125,-334.47265625,-670.41015625,-1000.0,0.0,0
1713993506.4910185,3,WORLD,999.51171875,999.51171875,-291.9921875,-436.03515625,0.0,0
1713993506.4949005,3,WORLD,240.72265625,250.48828125,-238.76953125,999.51171875,0.0,0
1713993506.4987824,3,WORLD,-1000.0,-1000.0,-541.015625,549.8046875,0.0,0
1713993506.5026643,3,WORLD,-708.984375,-915.0390625,-730.46875,-1000.0,0.0,0
1713993506.5065463,3,WORLD,948.2421875,667.48046875,-459.47265625,-950.68359375,0.0,0
1713993506.5104284,3,WORLD,532.71484375,666.50390625,-321.77734375,544.921875,0.0,0
1713993506.5143104,3,WORLD,-978.515625,-897.4609375,-590.8203125,999.51171875,0.0,0
1713993506.5184164,3,WORLD,-1000.0,-1000.0,-756.34765625,-319.82421875,0.0,0
1713993506.5222986,3,WORLD,153.3203125,-6.34765625,-590.8203125,-1000.0,0.0,0
1713993506.5261805,3,WORLD,999.51171875,999.51171875,-270.01953125,-32.2265625,0.0,0
1713993506.5300627,3,WORLD,-391.6015625,-212.40234375,-478.02734375,999.51171875,0.0,0
1713993506.5339446,3,WORLD,-1000.0,-1000.0,-707.03125,174.8046875,0.0,0
1713993506.5378265,3,WORLD,-187.98828125,-198.2421875,-639.6484375,-1000.0,0.0,0
1713993506.5417087,3,WORLD,999.51171875,999.51171875,-76.66015625,-259.27734375,0.0,0
1713993506.5455906,3,WORLD,52.24609375,140.625,-167.48046875,999.51171875,0.0,0
1713993506.5494728,3,WORLD,-1000.0,-1000.0,-692.87109375,255.859375,0.0,0
1713993506.5533547,3,WORLD,-375.48828125,-552.24609375,-706.0546875,-1000.0,0.0,0
1713993506.5572367,3,WORLD,999.51171875,999.51171875,-365.72265625,-563.4765625,0.0,0
1713993506.5611188,3,WORLD,244.62890625,326.171875,-379.8828125,999.51171875,0.0,0
1713993506.5651898,3,WORLD,-1000.0,-1000.0,-658.69140625,658.203125,0.0,0
1713993506.5690718,3,WORLD,-897.4609375,-1000.0,-703.125,-906.25,0.0,0
1713993506.572954,3,WORLD,704.1015625,426.26953125,-431.15234375,-1000.0,0.0,0
1713993506.576836,3,WORLD,675.78125,817.87109375,-348.14453125,327.1484375,0.0,0
1713993506.580718,3,WORLD,-907.71484375,-744.140625,-609.375,999.51171875,0.0,0
1713993506.5846002,3,WORLD,-1000.0,-1000.0,-653.3203125,-134.765625,0.0,0
1713993506.5884824,3,WORLD,25.390625,-137.20703125,-511.71875,-1000.0,0.0,0
1713993506.5923643,3,WORLD,999.51171875,999.51171875,-343.26171875,-171.38671875,0.0,0
1713993506.5962465,3,WORLD,-200.68359375,-52.24609375,-512.20703125,999.51171875,0.0,0
1713993506.6001287,3,WORLD,-1000.0,-1000.0,-674.31640625,228.02734375,0.0,0
1713993506.6040106,3,WORLD,-218.26171875,-255.37109375,-627.44140625,-1000.0,0.0,0
